Power [kW]
47.69
45.34
44.64
42.04
68.04
77.07
168.30
161.47
239.66
238.47
256.31
268.29
284.08
290.24
291.71
285.48
250.93
197.30
145.64
135.23
107.11
117.65
91.79
82.19
76.57
72.59
68.19
63.88
183.20
190.10
440.45
565.08
598.13
634.42
653.57
667.08
640.07
682.34
682.43
680.32
686.64
686.39
382.58
371.90
214.43
175.38
81.42
87.67
74.91
75.17
72.50
68.05
193.26
212.85
480.10
621.15
650.68
668.20
667.38
668.99
631.51
662.38
662.79
663.96
680.27
693.13
404.17
402.32
253.00
213.72
112.35
109.90
94.08
94.31
94.58
93.45
211.76
221.15
477.79
603.73
638.88
675.60
686.87
696.26
673.32
713.25
718.17
718.66
726.31
726.46
407.32
384.23
223.87
178.03
80.46
85.11
66.76
65.72
63.40
62.07
182.00
186.78
442.09
573.07
612.67
651.81
666.43
677.29
654.04
694.22
699.37
702.03
709.58
708.24
390.27
370.43
209.43
170.56
66.70
62.78
47.60
46.63
43.89
41.48
164.29
169.71
425.03
551.24
591.91
643.94
671.12
686.08
664.60
709.88
720.78
727.66
740.43
743.89
414.40
386.72
225.43
181.79
75.96
75.32
57.68
53.01
52.56
49.68
74.38
74.07
156.85
285.38
302.81
433.70
455.72
460.79
433.21
413.32
400.68
305.98
317.47
284.30
233.36
231.80
106.96
104.24
81.37
82.74
50.85
51.80
58.34
58.11
84.23
86.84
178.17
170.68
243.74
236.77
232.56
231.36
228.63
222.84
229.72
234.97
220.82
178.63
130.34
118.70
82.32
75.97
43.93
41.27
42.24
42.54
40.48
38.48
157.68
166.06
419.62
546.76
581.88
617.52
630.03
636.74
604.44
638.11
639.39
640.36
652.79
658.69
358.81
350.76
196.87
159.31
56.69
54.34
39.69
38.16
36.44
34.62
157.95
165.49
420.04
546.19
581.42
617.88
635.06
650.27
626.61
665.63
666.52
664.81
677.22
680.10
370.60
354.61
196.12
161.20
64.68
66.67
55.77
55.66
50.74
48.28
170.13
178.33
433.07
563.46
604.05
634.91
638.88
642.18
612.49
655.79
668.87
679.10
696.84
715.32
416.70
391.62
219.75
177.65
78.06
74.62
58.35
55.55
52.35
48.64
165.90
174.43
433.43
567.59
620.95
683.80
708.87
717.23
680.85
715.79
718.37
719.14
735.86
739.44
408.45
381.84
220.24
179.59
69.36
68.13
59.15
54.26
50.12
44.68
167.06
179.19
430.42
554.64
595.07
646.57
688.23
713.91
674.40
697.79
687.31
678.07
685.90
696.71
388.29
371.94
212.70
176.61
76.08
78.23
67.95
69.18
69.61
69.12
138.37
163.77
246.45
373.32
380.89
483.84
490.50
499.53
472.63
468.93
471.42
388.92
399.97
373.64
313.78
298.80
170.00
155.05
115.13
109.47
80.04
78.79
78.56
73.66
98.09
99.64
180.52
177.33
260.56
244.75
248.86
256.16
262.12
265.88
271.10
275.35
254.01
213.71
163.88
149.20
111.69
107.10
78.35
81.65
71.76
68.74
69.34
68.82
94.09
92.67
174.28
165.42
254.93
278.07
283.27
285.84
290.65
263.77
251.80
251.74
236.59
200.06
145.62
124.10
90.89
91.54
61.48
61.03
69.70
79.51
81.98
90.01
216.05
221.10
465.40
581.07
606.06
637.79
658.13
673.33
645.48
683.28
682.26
676.71
683.18
690.74
387.04
373.35
215.12
173.80
67.31
65.25
51.84
48.79
47.03
44.53
165.92
173.63
429.35
555.15
587.92
621.00
632.85
642.14
613.35
649.57
653.76
655.44
661.37
669.76
364.99
354.44
198.49
160.55
59.43
58.27
44.20
43.23
42.06
41.24
162.66
169.82
425.32
552.46
586.39
621.39
636.12
650.91
632.87
686.13
699.62
706.30
715.15
723.13
401.59
380.91
217.53
173.63
71.49
77.43
62.63
55.44
53.27
52.96
180.29
194.83
459.41
598.75
640.44
681.71
678.80
665.41
624.98
659.60
663.28
666.01
678.95
692.17
374.72
352.28
194.09
157.94
54.96
51.51
36.38
33.94
33.57
33.06
62.52
66.89
152.81
279.50
286.38
404.44
426.86
441.60
427.95
417.82
408.50
309.00
313.31
288.14
232.41
224.51
103.60
107.03
81.16
85.00
61.09
54.72
46.54
45.32
72.90
75.00
163.17
158.42
233.67
228.34
233.54
232.52
235.96
227.08
221.08
220.76
201.05
163.52
108.16
98.85
73.39
72.39
37.80
36.87
39.26
38.51
18.93
0.00
123.38
124.87
383.45
511.51
543.44
623.95
628.97
629.69
591.43
623.24
625.08
626.96
639.62
653.02
352.00
344.03
192.04
160.13
59.82
59.41
47.63
46.95
46.33
43.71
166.43
174.36
427.58
552.52
586.30
618.17
627.31
631.80
598.54
638.22
643.11
643.01
652.16
664.82
355.11
338.98
185.19
148.10
46.71
47.73
36.47
36.80
36.45
35.53
154.67
161.18
416.56
546.43
586.31
625.39
646.65
669.40
655.83
707.46
719.58
716.35
723.06
731.31
407.73
385.60
228.33
193.95
90.69
83.75
66.29
61.85
63.86
68.48
188.12
205.26
471.09
607.76
639.35
664.80
666.93
655.88
613.35
647.73
650.39
651.84
661.20
682.65
381.41
373.94
222.15
188.63
91.09
97.57
88.02
90.43
95.08
98.21
224.72
227.43
487.91
615.21
647.92
681.35
689.77
690.99
650.89
662.68
650.03
649.85
659.27
683.56
385.29
379.03
232.79
200.76
101.59
101.98
93.60
99.48
102.68
104.47
132.69
128.04
211.26
339.73
345.03
460.35
476.33
484.79
455.05
441.25
442.36
350.19
355.35
326.72
263.36
250.95
124.22
121.13
89.92
88.69
65.37
66.55
63.94
60.77
90.03
93.82
178.50
170.18
245.73
244.40
264.52
282.49
292.10
283.14
284.72
283.30
258.49
230.56
187.54
180.33
148.91
144.75
108.47
104.24
108.02
101.86
93.21
86.26
202.75
211.63
465.98
591.06
638.44
679.10
688.25
692.80
659.66
695.97
702.66
703.25
706.02
721.09
411.42
394.80
235.39
197.71
94.60
88.26
73.00
68.06
60.94
58.69
181.07
184.54
436.86
565.01
615.96
660.37
684.57
704.14
675.30
711.30
712.10
714.13
719.42
733.26
417.97
400.39
245.56
204.54
94.62
88.30
78.51
75.10
67.61
61.03
178.76
185.65
441.13
568.75
614.57
653.11
666.68
675.00
644.83
682.89
688.59
693.41
700.00
713.06
394.47
373.56
210.73
167.05
65.44
70.01
62.08
62.11
59.98
57.56
176.85
184.06
441.28
572.00
620.28
662.26
681.83
694.08
666.18
706.46
712.47
717.10
725.28
743.26
418.47
391.97
228.36
184.19
76.75
71.03
53.09
48.59
45.22
42.58
166.50
179.27
443.74
576.50
621.27
657.94
667.58
668.75
629.76
668.91
688.55
707.83
717.58
737.10
428.93
410.72
258.42
226.05
129.79
130.95
119.11
114.14
104.72
95.91
119.10
119.37
205.76
335.69
349.80
460.61
473.06
481.80
460.82
456.78
455.79
362.23
362.16
339.00
281.78
263.69
122.79
105.96
70.86
69.18
40.46
39.14
37.24
35.62
63.52
66.02
153.16
142.75
222.85
219.49
232.60
240.12
245.35
241.36
240.32
238.50
209.94
173.19
119.67
109.02
77.53
74.63
44.39
42.61
43.83
43.08
42.98
42.86
163.26
173.46
427.44
548.87
584.89
615.00
623.75
629.53
596.92
632.87
636.98
640.76
649.44
667.24
366.35
357.53
203.37
166.45
64.47
63.10
49.41
47.74
46.00
44.25
166.60
173.22
427.23
549.52
589.88
625.58
640.09
651.66
625.42
666.60
676.27
688.50
699.42
707.91
396.64
377.00
215.22
173.13
67.81
64.26
48.58
45.64
43.57
41.75
161.77
169.09
424.53
551.12
598.39
644.00
667.55
685.84
671.16
723.66
736.23
738.35
741.82
739.78
404.06
376.09
218.28
180.81
75.45
69.42
51.36
46.86
44.00
41.35
160.52
166.43
421.44
548.14
597.92
648.10
677.48
707.95
695.08
727.68
727.37
727.03
731.52
743.47
447.27
437.45
282.11
246.74
142.92
133.42
110.83
102.26
95.87
91.34
211.12
222.91
484.91
625.04
679.92
713.20
721.26
722.57
681.58
713.71
716.95
720.33
725.33
734.68
432.29
424.06
272.10
235.96
124.20
105.37
74.76
66.39
66.71
68.51
97.09
97.46
182.25
315.73
345.22
462.64
470.27
467.60
436.16
429.71
430.15
348.00
355.36
332.15
283.88
275.60
150.42
147.75
121.21
125.32
101.39
102.49
103.20
102.53
122.91
118.12
198.49
196.82
283.39
280.04
288.02
288.77
287.04
279.69
277.42
275.80
253.12
219.92
179.24
168.01
132.50
124.19
88.12
85.18
86.44
86.64
89.13
91.29
213.19
217.55
466.45
592.02
628.54
657.46
667.17
675.72
647.34
688.94
701.20
712.37
720.49
732.53
441.27
435.78
283.44
244.28
144.57
146.61
135.31
135.69
136.15
136.75
260.55
264.81
516.96
647.61
690.04
725.75
734.77
736.05
698.26
728.53
727.85
725.19
729.95
744.93
448.46
440.73
288.40
252.97
152.09
150.40
136.67
133.59
127.30
120.47
236.17
245.13
496.21
626.91
668.24
703.34
716.82
726.38
696.79
730.17
729.56
729.34
735.76
749.79
450.89
426.54
261.93
217.51
109.34
101.63
81.40
73.88
67.47
63.04
180.57
185.18
434.83
567.81
615.35
657.43
675.61
688.71
663.76
707.64
717.42
725.77
728.47
726.82
401.06
375.85
214.03
172.89
68.30
66.19
51.60
49.21
47.30
45.54
167.77
173.05
423.16
553.19
598.60
640.14
660.48
675.24
650.18
689.81
695.40
700.85
705.59
711.16
394.85
373.16
213.53
173.79
70.35
68.05
53.34
51.38
50.17
49.09
75.66
74.74
153.69
279.78
294.85
419.06
442.92
457.75
444.00
452.33
463.37
378.78
375.42
331.74
264.31
250.43
127.65
127.77
99.19
98.67
69.76
66.54
62.69
58.90
85.43
85.76
165.92
159.17
239.79
240.73
262.13
281.72
290.30
284.07
282.82
281.35
254.97
212.07
163.82
149.22
117.70
115.82
84.23
77.80
59.13
54.64
53.57
53.15
78.72
73.74
149.80
140.20
216.85
210.29
218.04
222.03
223.53
218.25
218.49
218.48
194.92
155.05
116.68
110.25
83.82
86.10
59.90
62.13
67.20
67.88
67.84
66.84
188.92
200.83
449.72
578.27
621.57
659.41
673.24
683.17
654.10
691.53
693.00
693.30
695.02
695.49
397.13
380.47
221.10
180.39
76.80
74.54
59.75
56.49
53.60
50.94
170.50
178.41
428.23
561.51
614.33
663.91
693.01
716.63
687.71
719.04
722.14
721.91
729.76
740.57
456.07
449.21
292.78
254.45
150.45
146.85
131.45
131.54
133.18
133.70
251.37
248.82
497.76
623.37
657.72
688.73
698.83
700.09
663.26
696.46
699.18
701.88
709.75
721.94
434.76
426.89
271.66
231.46
128.65
126.36
108.40
101.62
94.32
87.77
207.41
222.52
474.27
607.69
645.27
675.86
683.71
687.16
650.38
678.19
673.69
669.36
661.50
661.81
373.34
368.95
217.54
181.95
79.52
79.33
67.46
72.36
81.74
92.21
124.12
124.94
201.55
327.32
345.92
467.01
477.47
476.79
444.96
439.41
442.09
363.75
372.97
343.10
298.95
293.37
173.83
175.81
146.78
144.99
116.02
113.28
110.04
105.59
128.53
127.48
202.40
207.89
285.45
281.75
291.02
293.57
293.66
286.35
285.65
284.75
263.20
225.73
190.55
181.77
147.60
144.19
116.35
117.42
121.90
122.61
121.68
121.58
242.82
245.78
490.84
624.28
658.14
685.14
685.03
677.29
630.06
655.69
654.07
652.24
655.60
662.41
374.68
367.99
215.44
179.14
76.55
77.32
66.86
70.72
74.58
80.17
215.72
233.13
494.18
633.75
678.32
716.53
726.23
725.60
686.37
720.52
727.40
734.20
741.82
749.79
460.07
449.69
290.68
238.07
122.80
112.88
103.05
99.08
91.29
84.84
201.11
206.60
453.74
597.43
656.51
720.32
749.92
755.39
719.52
750.96
751.92
751.86
758.66
768.64
474.10
463.48
308.15
264.95
151.86
139.81
115.09
103.34
96.51
94.45
213.41
221.99
470.54
618.76
677.86
712.70
722.46
724.35
688.12
722.02
720.34
715.40
717.30
719.39
422.97
404.66
242.29
200.75
97.53
98.31
86.47
86.61
86.23
82.53
203.76
205.74
457.67
592.45
630.28
669.23
691.16
699.60
669.33
707.84
717.62
721.22
723.89
729.80
431.02
419.87
283.51
258.75
164.98
161.75
144.94
134.60
116.99
103.94
124.27
122.95
193.03
322.81
338.48
458.34
480.34
500.47
492.02
495.73
497.67
415.15
423.18
375.10
315.89
295.66
165.42
160.53
128.59
123.81
93.19
92.22
87.14
75.94
94.86
90.21
165.87
174.98
258.79
252.06
265.41
278.76
294.32
297.32
286.74
278.29
255.99
203.59
163.05
156.99
126.54
124.89
99.21
103.52
90.58
64.28
52.91
51.13
169.26
186.33
432.44
571.79
611.85
640.41
644.92
644.58
604.75
637.94
646.52
654.94
673.65
688.21
401.01
391.66
235.12
194.77
90.14
88.92
73.77
68.59
62.45
57.39
176.86
180.77
417.80
554.89
597.37
638.43
659.86
676.13
655.49
715.31
744.38
753.17
762.50
768.00
461.05
430.35
264.74
220.96
120.05
115.16
92.33
83.60
74.39
69.97
186.21
192.99
437.92
594.22
662.48
731.95
759.45
763.78
729.44
763.15
771.56
776.69
773.63
762.27
459.31
442.66
284.78
238.66
127.69
122.76
113.86
116.09
106.41
99.46
214.50
225.84
480.24
647.78
699.21
726.43
734.50
738.61
700.54
732.66
733.10
730.44
733.47
721.78
427.11
415.38
249.76
208.39
100.84
100.35
87.34
88.82
91.14
87.97
208.69
207.12
452.50
589.16
636.27
670.59
672.48
670.38
629.59
659.02
659.88
666.51
694.16
697.42
401.80
393.40
239.86
202.86
99.57
97.94
86.68
79.51
75.56
73.96
101.14
101.42
170.52
294.36
303.55
412.67
420.91
424.15
399.40
406.89
420.96
349.39
360.22
326.95
280.46
266.55
140.14
137.52
104.75
102.40
74.14
67.55
62.12
89.87
88.08
172.45
164.31
236.43
229.98
237.10
261.49
266.92
244.08
241.38
240.34
218.59
176.97
128.16
126.90
95.39
94.91
95.56
82.17
57.43
71.99
72.48
75.39
197.60
197.54
453.70
582.55
612.08
644.39
665.70
712.03
711.01
755.97
757.60
759.77
765.46
764.34
462.97
465.07
304.08
263.64
162.92
162.33
144.48
131.75
116.77
102.27
218.36
213.77
466.28
587.41
619.55
651.27
665.94
677.00
646.89
684.45
693.31
696.01
696.12
685.40
370.17
370.64
217.58
181.70
79.55
79.71
67.27
66.14
66.06
66.73
189.42
192.44
450.43
575.99
614.82
647.50
657.65
663.69
646.73
707.49
735.04
750.40
756.74
744.24
419.97
408.53
243.95
204.07
105.08
109.46
102.70
107.41
106.41
105.25
227.63
233.03
494.08
613.89
662.27
722.38
761.15
783.62
757.14
794.17
797.02
800.40
805.58
805.51
490.68
489.52
332.45
290.83
183.88
178.15
161.75
157.84
152.40
149.67
274.07
277.23
543.75
676.67
725.94
764.08
773.65
780.73
751.35
786.62
788.20
788.91
798.54
796.04
471.52
470.04
304.51
249.26
124.22
99.54
77.47
74.85
75.36
73.54
101.02
100.59
186.43
297.20
306.00
414.92
422.62
452.37
452.11
446.07
452.56
374.07
395.26
364.21
311.78
320.68
194.41
192.31
166.87
168.20
158.40
141.43
136.84
130.42
149.49
140.45
225.50
207.26
296.70
301.12
310.98
315.92
317.30
313.35
316.10
294.35
249.82
197.00
136.25
130.96
96.41
92.97
62.47
63.95
52.06
66.42
66.26
66.60
190.25
192.56
451.83
575.97
612.98
642.59
649.29
650.23
611.99
643.86
646.53
649.06
666.46
675.75
386.78
402.23
255.77
226.21
127.14
128.48
120.37
115.59
107.46
104.82
229.31
243.45
515.60
644.93
686.76
725.20
738.04
744.54
710.65
737.25
733.63
731.66
737.55
740.72
441.63
453.20
299.86
262.80
162.00
159.88
149.44
150.59
135.19
131.47
248.83
242.18
500.08
621.87
665.98
704.05
706.40
702.72
659.60
688.28
685.91
685.57
689.04
683.17
398.22
432.24
285.18
245.54
137.10
123.35
99.48
88.70
80.13
78.36
198.01
196.96
457.93
586.94
629.93
663.57
668.50
678.07
663.57
711.28
718.20
716.47
712.63
718.63
429.01
449.38
300.10
270.55
169.57
173.44
161.46
154.22
145.19
143.47
266.16
275.10
534.84
669.45
707.69
739.38
748.95
747.13
699.74
730.16
731.57
731.26
737.95
738.61
435.79
443.98
284.88
241.82
139.49
142.70
130.55
125.96
122.15
119.89
145.38
141.96
222.56
353.67
367.61
481.92
496.55
502.35
471.83
464.66
462.99
378.77
388.93
354.81
300.71
308.85
183.07
175.32
139.00
136.87
125.04
108.91
100.66
87.51
109.09
100.74
176.28
179.73
291.01
310.09
327.64
334.85
334.08
320.07
279.71
260.98
243.90
201.31
164.25
188.04
167.16
168.50
138.55
124.19
99.19
105.16
98.42
94.61
212.23
220.99
468.04
593.94
637.11
678.31
697.76
716.37
683.90
711.92
711.45
707.59
712.62
716.94
428.86
439.37
287.36
245.64
138.94
134.68
116.00
112.48
107.51
101.00
217.22
220.33
465.88
600.41
663.26
700.06
700.04
688.99
687.24
742.23
749.87
760.98
771.69
773.44
474.07
484.83
333.01
297.88
191.91
189.08
177.19
172.16
169.60
166.45
286.06
290.23
545.62
672.62
711.81
747.15
755.28
761.63
722.91
738.17
726.59
727.25
731.43
723.73
417.20
434.47
289.46
264.24
122.07
102.45
88.72
84.82
91.87
95.75
216.33
218.30
472.30
601.67
642.03
674.06
678.43
678.06
640.51
671.40
668.30
666.84
677.70
676.91
375.48
392.02
251.97
232.47
125.13
114.18
95.84
93.17
94.30
94.80
218.11
220.16
473.52
602.13
640.58
671.47
671.56
669.26
628.79
658.07
658.72
660.45
665.21
664.75
362.07
370.01
216.55
183.22
82.02
84.60
72.78
74.67
77.66
74.89
100.56
100.06
180.43
297.83
306.91
415.01
422.21
423.46
396.41
391.42
393.69
316.15
326.66
278.68
222.69
231.78
114.48
114.13
86.24
84.82
71.89
56.78
56.77
55.00
81.97
82.19
156.09
153.16
230.84
224.74
232.46
234.26
233.65
227.37
227.98
228.17
204.86
156.77
107.84
115.60
91.59
91.05
61.05
61.81
50.03
67.76
70.34
69.66
190.66
196.39
444.25
576.52
615.82
645.38
651.29
652.64
612.57
640.95
641.62
642.12
648.59
648.99
355.23
367.25
220.48
184.54
85.96
87.63
76.07
76.10
79.18
80.81
211.36
220.91
473.92
608.62
646.01
680.27
699.90
697.84
654.59
689.80
691.34
693.92
702.13
703.18
395.83
392.96
247.19
210.00
111.86
114.80
110.61
108.23
116.50
134.10
265.54
255.89
497.86
623.21
656.86
688.42
712.44
734.11
691.49
724.23
731.70
735.67
744.55
745.89
439.29
444.53
291.54
250.27
145.34
139.79
128.92
128.76
127.15
126.14
246.43
251.35
508.18
636.85
669.48
704.00
712.73
719.72
694.08
730.05
730.68
733.54
739.23
742.43
446.65
458.19
290.98
224.05
110.40
108.68
96.45
100.97
105.40
101.43
205.72
213.95
465.82
607.23
648.60
684.21
697.62
710.22
683.81
720.30
727.92
722.03
720.51
725.51
427.61
431.69
289.74
258.22
157.37
167.44
156.31
154.46
155.14
150.81
171.71
161.88
230.64
371.85
392.23
502.69
511.45
516.17
486.31
479.99
485.75
408.16
413.66
373.14
323.77
333.54
213.34
209.53
179.17
175.60
158.07
140.50
137.79
134.58
150.68
139.52
216.66
227.99
319.51
322.37
334.63
340.03
338.88
332.43
326.77
315.11
282.61
230.05
180.06
182.67
154.69
151.20
118.84
119.82
113.19
136.10
135.45
130.23
243.89
235.96
469.96
590.28
616.01
644.83
653.87
662.91
635.44
678.31
688.84
694.54
703.07
706.64
409.66
415.47
261.56
219.24
112.25
113.87
104.82
107.63
109.04
109.22
235.22
237.89
481.64
592.57
621.40
653.81
669.91
674.75
642.63
680.59
686.18
691.42
706.00
712.75
421.64
437.28
296.47
262.92
168.07
162.40
145.17
143.19
140.90
135.06
251.62
253.82
496.69
639.31
689.96
732.01
747.57
759.32
724.52
755.29
758.98
762.47
770.26
770.23
463.46
470.49
321.19
278.18
176.60
174.96
158.00
154.98
153.63
142.92
252.69
258.72
508.65
657.30
709.57
750.26
758.64
760.59
720.90
749.78
748.95
750.84
757.64
744.18
434.67
441.62
290.77
248.10
147.37
144.86
129.44
125.88
123.71
121.38
244.37
246.10
488.42
624.47
661.37
693.52
702.48
706.01
668.77
702.83
702.43
678.78
668.76
666.17
362.44
381.01
258.13
232.59
132.52
88.47
66.37
67.01
67.24
67.44
98.00
98.87
172.20
300.03
310.00
420.06
433.96
440.88
412.03
406.08
409.13
327.65
334.53
297.83
240.85
241.62
125.11
121.74
87.94
84.41
75.48
57.65
55.47
54.40
90.51
108.36
180.53
181.07
259.33
253.53
264.70
276.05
282.02
271.78
280.44
284.54
260.81
206.80
155.38
143.08
109.79
104.91
80.01
78.04
62.11
76.02
75.89
77.44
199.45
204.89
454.25
588.39
616.90
646.64
666.99
681.74
649.19
680.05
680.93
664.51
654.67
657.16
377.03
396.92
279.94
270.22
171.93
166.74
145.31
143.13
144.81
146.45
271.99
274.35
515.54
652.97
690.88
722.47
730.91
738.39
709.79
744.09
746.53
755.11
768.64
771.22
476.93
482.50
336.23
297.07
193.37
188.63
172.24
160.92
153.18
149.45
267.22
272.79
521.43
662.15
704.28
735.90
741.74
744.64
707.59
740.23
735.53
728.40
729.35
716.33
405.53
407.29
260.83
240.35
155.22
154.86
127.53
115.67
113.67
113.75
230.97
224.74
462.57
597.29
634.04
665.57
670.72
664.37
627.00
671.65
681.00
683.80
690.26
693.85
390.73
393.52
248.59
210.26
105.01
103.00
89.57
87.46
84.33
82.91
206.45
205.31
446.59
590.40
629.29
662.70
676.04
684.78
656.16
696.86
704.40
710.84
723.45
720.47
404.14
402.79
252.22
206.55
96.00
87.18
71.47
70.57
69.82
69.36
99.36
100.54
166.84
298.41
311.07
429.96
443.64
441.82
415.73
421.10
434.64
358.21
373.29
344.77
255.22
247.35
127.20
119.06
87.86
87.26
72.77
65.83
76.30
79.71
106.68
106.60
168.80
170.14
242.95
239.73
268.63
295.13
302.76
305.31
312.95
331.55
315.58
269.88
233.89
209.97
147.70
132.87
97.42
83.62
60.97
77.05
79.38
75.86
192.15
193.65
433.82
577.39
621.45
652.39
660.63
664.68
628.05
658.60
658.72
659.54
667.44
670.58
372.93
371.55
226.73
189.35
85.31
82.01
68.15
68.08
67.88
67.81
193.21
194.50
434.88
578.04
616.69
647.65
655.15
657.33
620.89
653.56
664.16
680.62
705.53
720.90
415.62
404.19
247.89
201.16
89.21
84.09
71.59
71.46
71.38
71.03
193.52
195.08
437.56
583.33
628.58
671.67
696.24
711.74
681.78
717.38
716.69
714.79
719.37
716.51
398.53
392.72
242.93
202.71
95.82
94.62
79.79
75.12
73.04
71.06
193.28
195.56
438.61
584.01
631.22
681.37
713.85
747.54
738.42
786.17
795.47
799.88
808.60
807.55
474.10
464.75
319.41
275.18
162.31
157.87
144.47
140.47
138.30
139.82
265.65
262.82
505.50
661.76
716.64
762.89
787.32
805.53
775.43
807.85
809.54
814.87
824.55
821.95
484.15
474.29
325.62
281.72
169.47
160.78
141.09
130.07
120.76
118.53
134.74
115.42
171.87
300.46
309.44
418.09
424.71
425.82
396.76
390.36
391.21
312.98
323.77
285.58
228.19
229.28
112.97
111.43
81.34
82.10
70.51
55.11
55.07
55.17
85.31
85.36
153.93
161.40
241.42
238.67
249.60
251.92
250.24
243.53
245.95
247.80
227.79
183.39
135.88
130.80
114.69
115.51
84.98
85.09
75.08
91.32
103.85
92.57
197.08
194.34
434.44
578.54
624.59
673.74
699.69
720.32
693.85
727.13
734.96
737.90
745.35
744.28
431.76
424.82
285.46
248.22
135.92
127.00
112.61
109.87
102.62
96.40
220.20
214.57
457.34
605.95
658.57
706.52
734.13
752.99
722.65
755.94
770.08
773.19
778.04
783.96
452.94
440.52
298.15
256.68
153.70
155.31
145.08
145.56
144.25
140.10
255.61
248.09
498.00
651.60
703.85
749.12
767.79
775.03
742.77
780.09
787.38
790.85
803.16
806.14
467.38
461.26
320.95
283.23
177.14
169.91
151.00
145.58
141.51
137.94
259.17
259.63
510.68
663.37
711.68
754.36
773.03
785.42
756.60
792.51
798.21
804.70
813.78
808.79
473.66
469.88
330.04
292.29
188.76
190.85
180.05
177.65
175.91
176.06
299.46
286.87
529.24
676.35
702.25
713.28
718.28
727.19
695.15
719.40
705.29
703.97
717.07
723.88
402.29
417.49
303.67
270.48
169.22
162.67
144.64
129.13
96.27
106.79
154.70
152.93
218.56
345.15
356.42
468.65
476.30
480.42
453.76
452.18
422.85
317.87
323.76
282.79
231.68
232.78
136.03
144.87
142.98
142.67
121.42
106.08
110.14
107.56
132.39
127.66
198.32
205.29
277.22
264.47
272.80
263.19
251.16
250.49
265.21
278.84
255.46
201.89
135.31
120.32
104.04
113.40
80.82
102.29
105.68
120.11
92.40
70.88
187.84
185.42
431.25
574.84
613.30
645.53
654.68
667.14
647.23
687.75
685.71
676.03
676.56
673.23
364.85
359.10
220.16
184.20
81.69
82.40
71.11
70.57
70.15
70.23
195.03
190.92
436.36
580.47
621.62
661.85
681.89
698.98
678.68
723.64
731.05
736.64
750.72
754.85
439.76
433.03
291.26
253.15
148.53
146.36
131.21
125.62
117.98
108.95
222.69
213.79
459.21
605.92
657.60
703.20
723.23
732.13
701.12
737.73
743.71
750.20
762.11
760.70
438.62
429.16
282.42
241.14
135.85
137.54
125.77
122.16
116.05
106.77
220.84
211.43
461.25
622.08
678.57
725.71
746.30
760.11
732.27
774.10
782.65
785.96
799.71
812.27
489.36
483.72
343.53
301.28
194.92
192.52
173.09
165.90
153.38
142.91
267.77
263.58
513.96
670.10
727.31
779.65
804.78
821.78
792.44
829.25
831.25
833.67
836.56
826.09
492.55
465.55
300.60
240.96
122.70
110.64
87.59
80.58
75.46
71.72
100.86
95.47
167.44
299.38
310.82
425.61
447.18
466.04
451.06
454.02
468.03
382.14
388.50
346.17
282.63
276.22
162.55
165.18
140.21
139.38
127.31
107.80
104.62
98.12
118.63
111.53
182.90
196.28
279.27
275.43
285.95
295.17
303.74
295.84
300.43
307.46
273.18
218.81
176.62
176.87
153.97
139.75
105.23
95.53
78.46
94.50
96.67
98.60
218.42
214.53
455.98
599.94
632.56
679.20
716.54
728.08
695.83
731.46
735.23
744.21
750.40
744.35
436.02
427.79
278.35
221.59
106.49
98.00
81.34
76.57
74.70
72.28
194.24
185.42
435.65
579.86
619.47
652.44
660.44
666.19
634.41
668.82
673.03
675.25
683.60
685.04
378.84
371.16
233.56
194.60
92.52
95.10
82.68
78.73
74.25
71.24
194.11
186.52
438.07
582.59
621.21
653.18
663.73
669.62
637.97
672.00
674.97
677.80
686.03
685.50
376.10
365.53
227.55
187.93
85.70
88.45
78.66
81.26
82.32
83.69
209.58
204.48
459.93
605.22
643.49
674.86
685.72
692.79
657.78
689.83
695.22
699.27
708.20
711.05
402.50
394.19
259.18
221.62
118.06
118.32
105.13
105.13
108.04
113.01
241.51
238.25
495.01
644.94
691.86
734.76
751.01
751.35
712.55
748.90
755.87
763.41
769.10
767.53
453.48
450.19
314.41
278.60
174.04
170.27
156.36
146.01
122.65
102.21
122.17
105.91
176.99
305.74
316.82
430.59
446.59
448.87
415.69
409.42
410.47
324.07
326.41
283.75
224.41
217.08
113.80
112.46
81.66
82.80
72.43
57.68
56.89
56.25
86.48
76.53
154.38
161.94
240.57
235.56
244.88
250.09
252.28
249.26
254.72
261.16
242.22
195.57
148.47
148.06
143.93
148.09
121.81
126.31
114.23
122.33
118.15
116.16
239.55
230.26
479.85
625.19
666.77
698.47
708.63
719.18
688.26
718.62
719.46
717.56
720.40
717.67
413.23
404.70
270.50
234.20
134.07
138.88
125.97
121.97
120.71
122.90
252.80
246.74
497.38
638.24
674.12
707.76
718.72
724.66
693.49
730.20
735.60
736.70
737.11
729.76
421.61
410.10
271.76
234.40
131.83
127.74
108.51
106.11
105.41
105.18
228.15
221.36
474.57
624.53
670.82
709.39
724.83
735.59
705.89
741.86
747.73
755.33
764.85
763.28
444.85
428.50
286.97
246.59
141.13
137.31
120.33
115.95
109.95
104.47
225.23
216.09
466.24
610.19
647.68
677.62
685.95
690.37
651.84
681.96
685.04
689.08
694.05
688.67
375.29
367.24
234.30
197.10
94.05
94.53
84.85
88.26
91.67
94.64
218.13
208.80
460.27
607.65
652.12
687.42
701.82
711.59
677.96
715.40
726.05
733.34
743.20
744.55
434.53
424.51
290.15
254.79
153.66
153.62
139.99
135.58
128.99
124.79
152.79
144.14
225.57
358.86
369.60
479.90
490.35
497.67
473.54
466.02
466.90
392.68
405.57
365.27
297.34
282.27
178.16
179.95
150.57
153.79
144.40
125.05
116.79
108.72
134.05
122.12
201.02
213.62
300.23
304.32
313.38
308.80
304.75
293.47
287.43
280.97
255.90
208.39
158.70
150.15
135.54
129.71
96.26
91.77
75.90
74.07
70.16
64.42
92.55
83.36
162.87
177.24
268.74
275.08
288.51
297.17
307.82
305.38
305.33
306.57
282.08
233.78
174.17
153.02
146.69
149.60
119.20
110.30
82.63
83.08
79.54
82.01
203.91
196.20
439.29
577.94
616.79
650.45
665.03
678.16
656.52
702.64
708.14
707.00
721.64
733.88
435.83
428.56
292.24
252.12
153.13
151.25
134.28
131.39
127.57
124.12
240.57
230.61
476.09
614.90
649.53
686.11
698.44
700.68
669.52
708.53
716.88
732.99
737.85
728.87
433.00
437.54
300.80
258.48
152.72
150.58
124.31
84.87
71.45
73.31
196.30
187.00
440.05
592.72
643.55
689.77
711.57
723.62
692.78
731.64
742.46
751.59
776.55
767.95
432.20
431.29
299.47
271.22
164.12
153.67
133.78
129.30
126.93
126.22
252.41
245.50
501.30
656.83
714.30
765.92
792.42
810.45
787.39
826.97
834.24
837.00
846.10
844.70
516.01
508.72
369.26
331.39
222.22
211.83
187.37
177.50
176.31
181.38
212.63
202.17
279.58
413.13
426.19
542.46
554.25
559.41
536.91
538.86
551.33
473.76
482.46
448.01
394.25
389.35
279.43
280.17
238.55
221.17
193.99
177.24
178.95
163.45
173.17
173.18
268.42
277.89
349.95
333.99
336.40
329.20
311.38
294.73
291.90
284.37
256.26
204.92
149.43
132.61
108.39
108.17
72.37
79.14
68.90
81.55
88.12
91.66
212.32
204.32
451.92
597.13
635.46
667.56
690.56
707.79
670.43
711.33
715.09
720.83
736.03
743.89
427.71
406.93
257.25
215.60
104.70
100.08
81.55
75.23
72.54
72.00
196.06
187.38
439.75
590.65
649.22
694.72
712.56
726.07
699.12
740.75
755.82
769.05
784.82
792.90
474.08
465.86
325.32
291.73
189.13
184.77
165.74
161.66
163.93
171.18
298.29
294.66
555.38
706.04
756.07
801.42
815.09
822.61
790.32
818.37
807.55
800.62
803.49
793.96
454.69
438.45
293.68
256.86
147.67
140.48
121.55
112.98
106.04
102.11
222.04
215.05
474.65
628.41
679.26
724.97
744.95
752.72
708.03
734.54
735.10
738.19
755.29
761.66
435.14
427.73
293.44
262.92
162.07
165.06
154.06
155.78
158.11
166.67
302.91
302.72
566.83
719.14
766.87
806.59
820.92
835.51
814.81
856.57
863.26
864.20
861.23
856.57
525.78
517.08
376.62
344.21
241.24
240.31
225.47
218.84
214.17
205.91
228.02
216.26
294.20
426.25
434.48
543.94
545.68
543.37
511.27
499.46
497.36
407.73
409.69
366.46
314.74
308.74
200.09
203.30
168.25
157.54
133.82
113.24
111.21
109.30
135.88
124.01
203.32
214.48
297.13
294.42
300.26
300.47
298.22
289.17
287.78
289.09
265.02
208.72
154.70
144.13
125.52
127.43
93.02
85.13
67.45
78.79
75.17
73.07
196.30
185.36
443.47
595.77
644.81
685.56
699.67
713.93
684.11
722.17
727.60
745.06
759.14
756.00
441.17
411.62
266.35
223.31
112.21
107.60
94.69
94.19
93.32
91.76
213.68
197.56
456.85
608.98
655.05
693.37
709.36
724.14
700.06
743.31
754.65
762.41
763.65
751.36
426.53
416.40
272.91
237.45
133.34
133.73
124.04
122.63
118.08
113.11
234.21
226.77
490.75
645.00
691.67
729.83
747.67
755.74
717.52
748.47
750.93
750.20
754.87
757.28
437.14
429.15
292.51
263.17
160.46
158.84
142.68
141.04
144.80
148.75
272.87
262.30
525.27
678.72
718.15
740.77
742.91
740.10
705.34
751.62
771.92
790.12
796.18
795.29
469.16
459.04
314.44
278.30
171.59
165.32
146.86
143.31
142.02
141.93
267.43
256.41
519.06
672.01
717.97
762.35
789.76
806.21
777.03
809.21
807.97
817.54
832.43
835.76
497.18
471.65
323.14
283.24
176.58
176.03
163.29
161.11
158.60
156.49
185.92
172.62
259.07
400.84
422.18
539.65
548.08
553.18
529.54
527.60
534.68
445.39
445.37
405.22
342.70
334.13
225.02
224.44
193.17
192.78
178.44
161.47
158.50
156.37
185.89
168.99
248.34
256.21
340.90
349.85
371.62
381.47
385.79
381.97
385.62
388.74
371.69
325.07
266.48
252.34
228.33
224.12
190.26
190.38
178.86
190.66
186.12
185.20
304.99
294.06
548.66
701.24
744.00
782.22
802.79
818.59
786.65
826.26
834.68
836.42
827.17
807.70
488.83
480.86
341.28
304.83
201.09
201.28
186.30
181.74
173.67
160.39
275.62
261.12
515.94
671.25
721.34
762.34
779.74
790.32
756.75
790.34
795.19
798.09
806.85
809.30
486.15
474.28
331.76
298.67
194.71
194.86
184.96
183.76
182.85
181.57
295.31
279.77
536.81
690.39
734.24
769.76
780.09
786.38
754.48
789.59
797.14
804.80
823.03
833.65
515.61
513.84
374.63
337.36
229.83
227.80
219.67
211.95
206.56
200.91
316.00
299.45
558.30
720.22
778.00
822.45
827.34
827.52
792.11
829.01
829.16
829.30
834.86
835.63
497.27
475.41
333.09
314.00
232.20
240.34
231.70
229.81
223.25
219.76
343.45
338.95
600.26
751.16
792.82
827.46
837.75
844.43
820.21
863.71
874.78
881.96
871.66
842.73
493.84
466.90
321.83
290.34
187.96
187.49
173.89
171.27
169.26
167.78
190.93
173.36
253.12
390.53
401.35
514.10
526.89
530.48
500.52
494.00
496.94
408.42
412.64
374.65
319.27
308.83
197.11
199.56
163.67
158.35
142.45
123.92
122.04
121.27
143.71
121.16
201.11
224.07
309.03
309.02
319.47
321.99
324.61
322.67
326.08
327.72
304.20
254.56
204.48
196.21
179.02
179.58
147.66
146.48
130.94
141.39
138.77
135.91
251.83
241.11
498.95
654.21
707.76
750.49
770.00
780.13
748.27
780.98
783.13
789.74
806.72
811.61
479.60
466.78
335.70
311.06
204.34
196.67
177.16
171.20
170.17
167.74
284.18
271.42
531.35
688.08
746.66
792.69
814.34
830.30
803.30
833.39
835.55
841.82
846.59
853.34
531.53
524.00
388.13
355.90
251.19
249.95
234.35
229.07
222.34
210.49
312.14
295.52
563.55
723.03
768.29
802.53
812.49
819.90
794.04
831.68
833.30
837.37
849.21
850.34
517.49
512.08
378.37
354.83
254.90
252.03
240.88
244.77
244.58
237.99
353.37
342.88
593.97
732.90
762.11
794.71
809.44
823.67
802.37
849.33
870.61
892.29
911.59
921.20
543.83
532.56
386.85
350.43
243.14
235.84
229.52
232.20
233.89
234.30
358.92
351.25
606.45
761.36
808.48
833.69
836.31
837.31
804.53
839.19
842.98
847.40
859.25
868.17
523.17
519.65
383.08
346.05
236.89
233.40
211.20
195.61
185.27
171.76
189.57
172.74
244.07
369.03
370.60
493.63
526.26
529.45
497.89
486.87
488.06
405.89
411.55
373.14
316.04
308.62
196.85
197.58
165.54
162.02
147.31
133.54
135.35
130.60
156.84
146.05
224.67
235.29
317.40
319.45
336.15
352.67
379.47
393.09
397.97
397.23
373.35
322.82
273.52
266.49
245.19
242.76
209.85
209.55
194.81
206.73
206.31
208.16
331.16
316.96
563.09
711.68
748.59
773.80
785.90
791.99
755.23
784.58
787.32
789.74
798.68
799.52
480.04
468.42
327.15
292.45
189.66
189.16
174.38
154.76
150.07
146.87
176.31
169.12
249.22
257.77
339.61
340.27
348.54
356.90
367.84
361.80
359.71
355.10
327.92
272.96
220.04
215.54
195.42
195.98
167.30
171.47
163.01
178.84
176.97
172.29
294.18
289.79
544.26
690.16
725.93
759.73
771.93
779.08
748.71
784.29
788.13
788.75
794.23
795.94
483.49
475.20
337.77
307.64
205.08
205.61
194.05
193.96
193.83
192.59
313.47
306.23
561.42
710.32
753.80
791.04
806.41
816.21
787.64
827.57
837.85
854.39
881.83
891.99
542.21
531.41
392.83
361.18
260.42
262.13
247.17
243.81
243.04
240.24
365.36
358.17
616.17
766.86
810.63
851.30
874.22
894.48
865.41
885.48
869.01
858.37
870.80
886.42
540.45
533.06
394.18
360.30
254.74
252.38
235.95
229.27
224.72
213.89
237.79
227.12
307.46
449.98
468.90
582.29
593.30
602.09
576.11
568.40
569.60
487.74
497.45
460.92
403.38
392.84
280.72
282.78
250.24
239.71
197.36
159.52
151.24
142.83
165.01
151.77
229.04
239.23
321.92
319.32
330.72
337.27
343.19
338.37
338.39
338.43
312.89
262.17
208.58
193.33
169.66
166.99
131.34
128.99
113.33
124.76
121.60
118.28
239.91
228.79
480.26
633.20
684.98
725.62
740.60
758.12
736.64
772.52
780.32
790.83
802.60
805.15
490.98
493.36
357.28
315.77
204.50
200.24
185.89
184.04
173.88
159.92
277.71
264.81
518.33
669.28
719.33
763.72
782.59
797.04
766.64
797.64
802.40
810.67
818.64
818.53
478.87
460.40
310.93
277.35
179.86
176.57
160.75
158.03
155.29
152.85
272.54
264.89
523.37
678.97
725.59
769.30
792.10
800.10
755.35
778.99
785.28
783.99
793.61
806.21
470.37
460.03
330.77
315.18
226.19
233.11
222.83
217.77
212.39
203.42
323.37
320.46
575.77
730.89
773.60
796.42
796.80
813.31
800.19
846.92
864.07
876.33
887.61
891.48
537.52
528.35
389.05
354.69
249.53
247.01
232.57
229.28
223.46
210.43
322.93
313.04
570.45
721.07
764.69
802.86
817.33
823.42
789.41
822.88
825.92
829.00
833.44
832.27
492.76
484.12
354.03
313.56
187.11
174.16
157.49
153.81
148.70
141.82
165.28
150.95
229.44
369.41
388.22
506.37
519.67
522.18
499.00
499.80
499.41
411.86
421.33
385.59
333.19
331.84
217.65
215.65
187.85
184.61
164.95
145.15
144.48
143.18
170.90
158.50
237.68
252.27
340.41
347.33
362.83
367.87
366.05
362.70
370.34
374.59
354.88
307.58
250.44
233.63
213.11
227.36
204.22
195.87
171.61
178.28
176.61
177.91
302.72
301.34
559.11
712.62
762.53
809.60
826.92
840.91
810.31
847.06
868.47
886.07
881.86
878.82
532.93
522.69
384.76
358.46
255.92
247.39
224.70
213.23
202.10
196.35
321.45
315.09
575.21
732.90
788.61
831.94
846.95
853.53
824.51
867.12
873.50
882.34
894.01
895.20
527.85
514.98
378.79
351.39
251.77
251.46
239.35
237.73
237.46
237.57
361.07
362.61
620.77
779.03
833.61
886.13
911.50
935.57
917.46
958.61
972.35
987.36
999.35
1000.00
580.38
564.08
407.50
364.40
261.88
262.29
250.31
248.67
247.92
247.06
369.60
383.38
646.28
816.13
866.12
914.80
943.99
961.12
935.08
969.31
974.96
968.38
960.96
958.36
554.26
545.20
404.36
371.60
268.82
268.40
254.50
252.78
252.96
250.86
375.32
399.45
664.17
824.27
875.32
921.08
945.15
958.96
927.67
964.53
966.83
968.16
975.42
974.61
560.19
543.05
403.28
373.83
271.33
270.04
257.01
252.64
248.56
245.94
276.81
268.87
340.63
490.89
499.31
615.06
622.57
628.58
608.47
606.65
616.27
500.09
498.98
457.86
403.44
395.16
286.87
291.81
262.09
264.73
256.43
241.26
241.57
241.93
271.86
267.99
343.10
350.70
431.52
428.68
437.63
439.37
442.50
440.69
440.87
441.93
419.82
362.22
291.59
284.80
273.59
278.68
247.13
243.99
229.89
245.55
245.36
244.19
359.43
334.79
546.76
679.19
718.30
752.96
768.56
777.68
743.60
782.83
793.70
802.77
815.13
814.81
484.78
473.47
331.45
297.10
196.19
202.51
192.91
193.48
195.47
200.77
332.43
328.89
581.52
740.52
782.68
817.33
835.27
845.06
818.40
853.41
850.54
846.52
862.83
879.71
543.00
537.38
399.63
366.70
263.57
261.78
247.37
244.61
243.38
242.42
364.96
364.14
617.36
768.17
816.38
861.69
879.23
888.35
862.18
901.25
907.32
906.18
907.29
904.15
538.88
526.03
386.03
343.10
236.21
230.78
204.38
193.07
191.24
190.15
312.38
312.84
562.16
710.76
752.90
788.26
797.70
795.09
754.01
789.68
797.57
800.16
803.58
801.43
470.21
462.48
331.21
295.80
192.92
192.55
175.61
173.00
170.36
168.27
293.25
287.82
534.31
678.22
719.26
760.54
781.20
795.89
766.08
795.35
789.43
792.91
805.21
807.12
475.78
472.56
339.93
310.46
212.28
215.74
206.06
196.39
184.45
185.34
216.51
207.89
278.52
417.75
437.26
553.87
561.97
561.27
537.95
534.33
520.46
420.12
426.57
386.96
329.79
325.32
220.56
220.72
195.64
196.07
179.96
160.16
159.17
161.20
189.29
182.94
255.21
262.20
336.96
329.13
330.52
322.36
321.05
320.30
336.75
348.87
326.12
277.41
227.06
219.86
209.57
209.00
180.97
184.25
174.77
186.61
181.35
180.65
303.98
304.76
555.57
706.02
751.33
791.93
807.21
818.52
792.85
834.03
836.59
838.34
856.58
863.70
529.73
518.59
380.83
342.75
245.80
258.91
257.00
255.64
251.71
252.84
381.78
380.48
632.17
782.40
828.11
869.50
886.51
898.25
873.97
920.91
935.90
942.85
954.19
959.20
563.66
555.23
419.91
383.30
281.35
280.50
266.57
262.92
261.21
262.34
387.35
405.12
677.46
832.53
880.09
923.50
939.63
948.90
918.38
957.74
969.14
973.67
977.29
973.44
554.69
542.27
405.37
368.62
266.54
266.78
253.48
249.93
247.74
246.72
369.36
383.84
644.51
806.83
851.59
889.89
905.70
917.65
891.43
929.55
935.12
939.99
950.10
952.64
552.43
544.97
409.85
370.78
265.58
264.73
254.53
255.17
255.24
254.36
380.09
398.48
656.27
814.50
859.31
897.30
912.70
922.86
890.64
922.45
924.47
930.42
943.56
947.24
547.85
536.49
400.56
362.82
259.44
258.30
244.49
241.52
239.61
239.63
270.86
272.16
341.92
482.33
492.80
609.32
619.82
624.02
596.68
590.55
592.06
492.24
497.09
457.74
399.73
390.64
285.99
284.26
254.26
253.99
240.45
224.63
221.90
217.68
243.71
237.19
300.63
306.50
387.60
390.05
405.39
410.44
413.14
409.21
408.93
405.24
372.54
317.62
269.62
264.17
251.68
246.72
212.24
200.48
167.52
162.07
146.96
137.35
251.93
249.92
495.01
645.90
689.85
726.30
738.63
745.34
713.86
750.68
760.93
778.65
801.77
814.53
498.16
490.86
359.10
324.11
222.84
222.58
207.42
203.94
202.83
207.33
338.66
346.36
598.28
751.21
797.84
833.49
843.44
844.56
803.17
827.95
826.23
827.44
834.67
834.20
490.58
460.11
317.34
279.41
176.59
176.40
165.14
165.33
164.27
163.54
286.30
291.75
543.86
699.85
746.19
784.79
799.63
806.06
768.60
796.96
798.31
802.99
812.40
816.14
479.01
475.07
338.76
304.90
202.51
203.70
195.06
198.09
202.21
205.85
332.49
343.24
599.48
756.59
805.41
852.37
883.64
905.84
881.81
924.16
928.68
920.64
906.09
887.93
522.02
520.07
383.86
347.42
243.78
244.03
231.95
231.66
231.58
231.65
357.96
363.75
612.42
763.77
802.18
828.59
832.11
829.12
786.01
809.82
796.73
784.95
784.30
781.28
449.43
443.40
304.03
267.76
165.40
164.88
150.92
148.15
144.40
139.72
164.96
160.89
226.85
358.14
366.56
476.45
483.44
484.52
455.96
449.74
449.22
360.63
363.52
321.51
262.52
258.21
147.70
144.99
113.05
112.58
101.23
86.38
86.52
85.57
114.20
114.42
185.54
195.59
277.28
277.43
291.91
299.58
304.68
303.39
307.80
310.79
290.27
241.99
190.66
185.86
168.58
167.45
136.47
134.01
118.91
130.31
127.98
129.01
254.11
260.05
508.04
659.95
706.68
747.61
764.75
776.20
748.09
787.48
792.93
793.40
798.24
796.13
478.17
472.19
328.57
286.65
178.39
169.07
143.60
129.13
117.09
109.16
228.17
225.15
465.56
608.95
649.38
685.08
698.14
705.79
676.46
716.49
723.57
727.85
737.00
735.28
410.67
398.21
251.77
211.55
106.56
104.58
92.22
91.95
91.04
89.50
211.10
214.43
464.72
618.22
665.46
706.47
723.50
731.44
697.26
730.65
732.39
734.14
741.51
742.06
416.03
409.45
266.69
223.84
113.99
110.05
93.15
88.72
84.24
81.82
201.76
203.75
445.48
597.07
645.14
685.89
705.39
715.52
685.02
722.16
727.42
729.88
738.32
738.57
410.70
404.20
263.57
226.42
122.83
122.67
111.33
111.53
111.36
111.08
236.95
241.31
489.65
640.26
685.84
726.81
745.32
753.85
717.29
747.47
750.88
756.88
768.90
773.42
449.07
444.79
305.78
269.58
167.28
169.28
161.58
165.99
168.82
169.33
199.40
199.34
267.49
400.67
415.54
539.04
559.23
568.57
543.99
540.16
544.05
459.53
464.33
426.70
369.63
365.82
253.39
245.03
208.87
202.45
183.28
160.46
154.99
152.96
181.49
180.91
253.34
254.31
334.04
333.72
347.54
353.69
355.85
351.33
353.91
356.67
336.43
289.95
239.47
239.53
216.80
213.86
181.58
178.77
164.28
176.67
174.89
175.09
298.95
303.63
553.00
696.14
736.57
765.42
769.84
771.50
737.95
773.06
779.09
788.14
803.13
811.39
497.54
494.05
349.21
312.02
208.27
205.27
188.56
182.84
176.79
172.13
293.87
294.69
546.95
693.50
741.45
786.30
806.25
817.51
784.84
817.01
819.50
825.10
837.11
838.17
512.96
506.40
354.46
309.49
201.28
197.47
184.32
182.76
180.71
178.49
299.48
303.30
556.60
702.95
749.04
790.73
808.29
818.68
782.92
810.70
811.31
821.27
837.34
842.68
514.88
511.60
363.05
325.03
223.40
224.58
213.42
212.76
213.33
214.34
338.77
345.55
600.27
748.31
791.63
829.71
842.24
852.19
827.90
874.70
887.33
893.63
902.96
906.04
542.09
543.41
400.10
361.61
257.20
256.51
245.50
245.75
245.04
244.71
370.45
376.02
628.72
775.63
822.31
865.10
883.23
896.28
867.93
910.71
923.64
933.83
946.67
949.97
552.63
551.25
407.08
369.01
265.34
264.58
252.30
250.08
242.83
228.86
233.07
203.99
271.34
401.46
411.40
525.77
536.20
541.60
518.54
517.53
521.62
430.88
437.72
400.66
344.72
346.81
234.41
236.04
207.93
213.09
206.81
196.36
201.77
208.44
246.09
252.34
326.33
329.27
411.69
414.11
425.58
430.58
430.52
423.48
423.40
422.95
399.16
352.40
306.08
310.66
288.97
282.52
245.51
241.98
230.69
245.12
243.73
242.60
364.67
364.65
612.68
755.08
795.75
831.06
843.85
850.32
820.14
860.39
870.42
881.02
896.24
902.62
544.24
543.03
398.44
361.02
258.31
258.13
246.90
246.64
247.45
248.43
374.83
377.55
628.74
774.49
819.86
861.07
880.97
892.21
862.23
898.38
905.75
915.06
929.60
933.05
545.91
540.61
393.13
354.99
252.27
253.79
244.93
247.14
248.29
248.24
370.29
376.42
630.51
781.84
830.66
871.24
886.35
894.17
865.14
906.99
917.09
925.66
935.98
936.60
544.26
547.76
398.03
361.27
259.00
257.78
242.34
237.45
230.97
225.93
338.04
338.37
590.87
738.33
782.32
819.14
829.51
834.25
800.51
833.51
835.42
838.65
846.86
846.67
505.02
496.47
339.81
304.21
204.69
210.74
207.73
217.37
224.71
228.90
358.79
365.41
614.65
754.35
791.47
821.39
827.19
829.19
794.09
826.45
830.15
829.70
829.98
824.09
479.50
477.51
328.52
291.66
189.35
197.95
188.90
181.52
178.86
169.83
188.38
180.56
250.68
377.36
385.63
500.08
517.04
527.12
497.45
490.68
499.59
410.86
419.87
390.15
334.77
340.87
221.09
215.10
169.11
157.88
142.92
116.21
107.84
101.40
124.36
119.02
187.81
189.91
271.84
273.90
291.86
302.38
307.10
303.67
307.33
311.21
291.34
242.94
197.34
201.49
171.73
172.38
141.65
142.79
134.11
129.34
124.11
124.83
156.50
156.02
233.15
231.97
317.93
327.20
345.61
355.90
356.53
351.07
357.54
359.80
330.57
274.05
220.39
219.64
191.45
188.40
152.47
150.10
138.85
153.30
149.42
145.65
273.00
278.08
528.75
666.00
712.30
758.24
785.01
800.41
771.63
808.47
818.91
829.32
835.40
832.90
517.73
522.40
352.34
296.43
206.50
209.06
190.71
183.31
176.02
169.49
286.25
284.32
538.36
676.67
725.40
772.33
793.16
805.24
774.15
813.39
823.18
831.58
837.67
837.88
508.58
501.61
346.64
307.94
208.72
214.02
201.93
200.18
202.09
204.98
327.46
331.11
587.65
725.96
770.53
814.51
832.31
840.83
801.95
830.55
830.42
829.80
835.88
836.25
504.23
501.93
354.08
320.05
215.98
215.08
202.42
204.58
206.91
204.69
324.83
325.55
581.32
722.70
773.23
815.18
823.69
829.29
796.31
826.61
824.56
824.95
829.99
823.33
490.82
484.45
333.87
294.11
187.35
186.88
175.14
171.97
166.95
164.92
192.68
191.72
268.36
385.59
394.75
517.92
543.10
567.17
555.68
539.24
533.79
447.96
449.70
411.10
355.31
363.04
238.25
239.76
218.27
224.82
191.29
150.71
137.74
122.79
134.87
123.94
195.80
190.14
269.64
267.07
284.70
298.61
308.40
301.20
296.70
294.92
265.79
216.80
172.40
170.14
127.18
118.55
80.29
75.20
57.13
79.82
80.26
73.96
192.45
195.44
443.25
578.37
618.02
651.76
670.72
685.28
658.97
698.93
706.54
705.86
714.69
718.32
407.53
413.84
253.89
212.99
109.28
108.01
91.94
88.94
87.92
88.39
211.80
212.35
465.80
606.71
667.31
726.74
750.24
761.84
731.45
773.31
778.83
778.02
783.47
786.16
468.24
478.44
323.93
287.46
188.75
191.39
182.65
185.28
188.09
184.33
304.16
309.58
567.60
711.36
757.47
795.07
811.74
825.66
801.33
842.73
855.94
865.02
867.49
862.16
525.86
535.72
383.40
349.97
249.11
249.28
237.14
236.77
235.63
233.17
354.78
358.12
614.64
754.92
795.03
826.27
837.71
851.39
823.20
857.95
865.70
866.35
857.15
841.17
500.36
483.07
313.62
269.31
158.10
156.20
138.96
127.09
116.20
106.18
227.01
224.66
476.32
615.16
662.85
703.36
719.92
735.55
706.42
737.41
739.24
746.07
754.01
752.19
425.88
430.81
262.39
217.70
110.85
107.12
89.54
84.92
82.61
79.68
106.84
104.21
179.30
301.43
318.37
442.75
465.42
483.07
461.23
453.08
451.02
363.83
364.52
321.57
267.66
286.46
171.02
175.88
149.97
155.45
154.06
149.29
157.43
162.27
193.30
184.25
249.19
240.39
311.29
303.44
316.01
321.43
320.53
313.53
317.97
325.23
304.75
254.25
198.40
208.03
178.40
177.40
146.46
141.03
123.22
136.84
136.45
135.29
256.74
256.71
502.44
637.06
682.50
725.50
743.13
744.03
703.87
739.90
749.10
757.94
771.46
763.15
443.14
448.86
289.30
237.40
118.13
109.65
90.65
83.51
78.19
73.05
196.90
197.30
448.22
583.59
623.37
665.99
702.69
732.29
708.83
742.67
738.66
739.27
742.47
737.74
424.47
421.48
259.40
220.69
117.49
118.11
107.60
105.06
98.86
94.91
217.21
213.89
464.02
590.11
630.40
670.45
693.65
714.38
690.98
726.81
732.42
737.62
745.16
750.28
438.04
446.40
295.17
259.78
156.72
157.49
147.24
146.18
146.77
147.21
269.18
272.36
536.74
675.49
719.76
759.14
775.41
788.13
760.62
799.33
809.25
815.98
827.73
833.50
521.14
529.18
373.97
330.30
217.42
209.18
195.27
192.62
188.43
187.28
314.70
318.66
577.79
709.61
754.46
794.29
810.82
814.96
777.98
814.38
820.56
830.42
837.39
840.53
523.98
511.76
326.23
271.42
155.78
143.05
117.57
99.65
86.98
77.45
101.55
108.19
223.55
346.90
354.15
459.19
464.24
461.29
426.13
417.58
413.95
324.23
330.69
300.20
252.13
249.22
120.15
114.01
84.59
83.91
71.11
58.07
59.07
58.41
83.31
81.77
164.63
158.11
235.79
234.88
245.53
241.80
243.53
243.01
246.53
248.20
228.75
181.68
136.08
140.62
107.66
107.62
82.21
84.36
73.71
88.81
89.12
88.06
211.06
211.82
464.38
598.12
639.85
670.17
681.40
692.37
663.54
701.70
705.45
710.54
725.85
728.49
426.39
432.36
279.99
244.13
140.29
140.47
128.84
127.05
125.89
126.10
247.50
245.38
503.65
638.41
680.40
716.90
731.56
737.28
700.17
733.04
735.66
735.94
744.69
747.61
435.28
435.11
279.51
242.72
141.15
142.99
130.98
127.01
123.11
121.08
238.35
236.10
494.22
627.31
667.76
701.61
714.01
725.43
699.90
741.47
746.24
743.57
748.27
747.74
435.08
430.87
272.38
232.09
127.38
127.42
114.48
112.16
110.07
105.93
224.81
223.65
480.08
610.91
656.38
695.48
709.87
719.87
691.80
726.73
726.50
727.00
735.18
758.96
445.13
435.89
265.30
209.05
94.35
91.98
77.86
80.59
93.15
105.04
236.08
243.12
500.56
631.15
661.63
682.19
672.60
689.64
668.52
705.51
710.83
717.70
723.55
719.06
401.26
395.37
237.17
196.14
89.42
86.98
75.53
75.10
72.31
70.88
100.41
100.10
182.07
299.22
309.12
420.42
432.87
438.47
413.87
412.26
417.53
334.60
360.45
323.71
248.26
257.21
139.44
135.38
105.12
96.46
72.22
55.15
54.61
56.30
84.93
82.82
164.51
156.98
235.44
230.53
239.27
247.92
256.94
259.34
267.08
271.15
247.81
200.22
159.06
159.47
128.45
126.12
94.00
92.22
77.45
91.31
89.51
86.81
204.22
199.47
450.42
581.08
628.05
668.78
684.71
699.92
677.53
719.49
733.60
744.27
756.18
769.87
466.68
450.03
291.20
259.04
159.65
158.39
144.81
143.97
142.62
141.44
263.13
259.56
510.71
639.34
685.96
732.07
755.19
766.13
729.95
760.48
763.42
763.05
764.03
759.73
451.56
446.81
288.55
248.59
140.69
135.62
119.77
119.44
119.37
124.13
253.31
255.80
522.63
684.00
748.41
772.23
767.41
770.79
734.27
763.52
760.73
758.66
760.66
743.29
422.06
408.82
240.21
190.70
81.82
81.76
69.51
68.69
68.26
67.98
190.70
192.43
453.69
579.53
617.96
649.14
656.82
659.26
622.46
653.52
654.19
654.77
664.99
668.05
371.11
372.61
217.73
180.36
79.28
83.87
77.82
82.39
82.65
81.83
209.20
208.79
464.18
585.80
621.67
655.82
664.95
665.65
628.89
672.01
682.62
686.62
693.67
693.51
391.41
379.14
229.75
218.11
132.08
138.08
134.29
130.57
124.97
127.35
156.69
152.65
234.94
350.06
367.04
489.22
499.31
500.74
473.51
470.92
476.40
392.12
397.83
359.66
320.56
311.04
186.54
185.09
143.05
128.92
109.47
95.31
93.34
91.42
115.14
109.72
192.83
177.90
254.63
249.27
251.37
250.75
247.63
239.29
240.14
234.42
212.60
167.90
134.49
131.95
103.28
103.71
75.68
78.33
71.14
74.73
75.91
78.89
111.96
116.03
207.26
199.09
280.54
277.88
289.25
296.62
303.87
305.37
311.02
314.02
293.35
246.31
210.25
206.46
175.82
172.66
139.98
141.21
129.58
142.74
143.49
144.95
270.32
271.86
533.03
660.54
702.18
735.71
746.34
753.57
717.19
746.29
747.24
752.05
760.89
765.71
483.59
481.07
331.80
300.43
199.13
199.73
187.27
185.95
182.24
171.74
285.70
290.49
556.85
680.13
719.84
749.51
743.52
728.58
680.00
715.70
726.87
730.69
732.83
724.70
414.82
394.57
240.28
217.76
122.06
122.76
108.60
93.75
82.31
79.78
203.62
207.98
466.15
595.40
628.07
654.08
667.03
677.81
650.86
695.15
701.97
702.28
690.79
677.24
381.86
377.91
222.55
184.66
82.06
82.64
70.87
70.54
69.83
68.83
194.00
195.69
456.91
582.34
622.49
668.07
696.95
714.29
683.23
717.68
727.39
742.53
757.77
763.09
464.15
456.27
298.87
260.38
158.70
160.59
150.64
151.38
146.74
132.23
139.74
119.21
192.28
304.26
330.13
445.06
458.11
460.09
435.60
438.06
448.32
374.91
386.09
347.70
303.59
301.76
178.44
176.04
144.15
142.62
127.49
106.69
100.31
97.84
122.13
120.27
204.74
189.15
264.84
253.64
268.14
279.47
272.50
248.52
236.43
232.80
208.94
159.42
130.20
123.96
95.37
94.70
64.60
65.06
52.79
67.57
67.44
67.48
190.17
191.06
449.78
574.09
612.87
645.34
658.09
683.93
671.35
719.30
728.05
731.70
740.27
739.90
452.04
443.66
292.99
255.49
151.31
148.75
132.04
129.40
126.08
115.28
232.89
239.25
496.23
615.55
656.29
693.54
716.94
736.49
711.54
747.29
750.36
753.66
762.41
763.02
468.96
459.98
309.86
273.96
168.67
168.40
153.72
146.71
141.47
137.73
251.27
239.16
480.98
587.89
621.57
652.88
660.87
663.17
633.10
679.38
699.55
708.16
718.99
716.23
425.72
419.82
266.57
232.96
138.22
135.72
117.97
116.08
112.12
109.66
226.16
225.70
484.92
615.43
646.17
682.96
700.70
704.37
673.07
711.68
713.43
712.27
708.21
685.45
380.20
369.08
217.59
182.11
79.67
80.27
68.49
68.34
68.75
69.40
195.17
196.99
458.44
588.80
622.80
656.20
666.40
669.85
634.39
666.24
668.25
670.43
676.54
673.15
380.58
371.87
219.83
183.80
81.20
81.42
69.57
68.83
68.59
71.35
102.01
106.03
192.91
306.54
317.45
441.39
456.77
460.45
444.46
436.44
438.30
352.57
352.78
319.35
280.72
258.27
141.22
114.24
77.73
84.29
73.55
59.42
61.26
60.59
97.39
94.96
178.29
169.46
236.28
228.19
235.82
238.19
238.60
236.60
238.22
237.98
213.88
162.54
134.69
130.69
102.65
101.00
68.22
67.27
54.55
68.20
67.61
67.29
190.03
191.58
450.30
578.44
611.07
642.14
650.82
658.85
634.88
664.41
673.51
684.80
699.65
706.60
425.89
417.06
264.54
228.62
126.97
126.98
114.66
114.16
113.70
113.37
236.37
234.03
489.08
617.18
660.25
695.45
704.20
708.35
675.65
705.31
704.20
705.11
711.04
711.20
428.46
428.05
276.51
238.50
137.74
138.19
126.12
125.05
124.20
123.39
236.48
234.82
493.09
620.53
649.92
686.38
700.09
697.03
657.24
686.77
686.43
689.83
709.74
721.56
420.33
408.20
252.14
214.45
108.74
98.88
83.52
83.77
83.66
79.67
201.70
202.58
457.90
584.78
616.16
648.70
657.75
661.31
626.43
665.44
682.31
695.83
707.67
708.20
401.25
386.10
229.47
194.47
90.12
87.82
75.30
74.77
82.56
98.46
233.20
238.80
497.14
626.22
649.33
674.26
687.68
693.88
663.67
705.52
705.22
693.66
695.20
693.61
405.84
402.59
249.58
212.71
114.86
117.47
105.58
108.28
108.88
111.08
143.39
144.90
232.77
351.46
348.80
451.41
452.47
444.17
414.70
404.02
404.99
328.20
330.87
282.91
236.91
230.90
109.19
108.05
78.02
87.83
82.44
68.79
71.51
72.92
97.19
95.25
179.90
171.50
237.97
228.02
234.34
238.00
242.45
247.48
257.81
265.57
246.53
200.65
163.24
155.36
121.24
119.14
87.48
84.52
67.77
77.80
73.45
69.70
191.99
193.46
452.40
581.55
616.01
654.31
677.19
694.22
671.81
707.07
703.40
701.20
703.93
713.70
434.75
426.18
268.91
228.09
120.37
117.16
101.43
97.81
99.11
96.85
219.48
222.02
484.13
615.46
653.45
689.70
707.24
723.47
696.61
734.68
739.16
742.08
743.83
741.40
448.14
444.05
287.20
248.76
143.15
134.88
109.47
104.00
106.74
96.35
210.41
207.84
465.27
598.73
625.90
674.63
690.76
686.56
649.25
681.89
686.08
689.55
701.16
708.24
418.55
409.82
257.61
233.37
137.50
136.83
123.24
121.45
116.70
113.99
235.15
240.88
502.82
633.38
657.00
693.30
710.54
711.06
674.00
705.13
696.94
676.12
673.02
679.07
386.91
377.33
220.74
187.88
85.21
86.45
77.06
73.86
67.95
67.60
192.90
194.37
454.91
588.57
617.48
648.78
656.31
658.10
621.44
652.83
653.02
667.54
688.31
700.56
420.68
410.49
263.24
235.68
147.76
150.70
134.87
134.92
134.54
131.76
152.81
139.37
221.90
364.24
376.65
493.64
505.34
509.16
482.58
479.82
484.17
404.37
415.76
382.25
334.97
309.04
177.37
173.85
144.05
142.42
129.12
107.97
107.13
106.78
133.47
133.03
222.19
217.46
285.86
277.14
278.84
264.98
247.29
238.87
236.56
231.76
209.00
167.44
132.00
123.59
94.91
92.85
63.88
64.74
53.20
66.83
66.84
67.12
66.65
189.32
192.54
444.02
578.74
621.75
661.15
669.55
670.52
634.98
666.51
669.06
672.80
689.41
696.84
394.01
381.91
226.39
186.31
81.58
80.90
67.94
66.85
66.85
65.73
191.30
194.82
443.28
575.39
613.60
646.03
655.08
658.01
622.92
659.21
660.91
662.11
681.92
696.67
399.40
399.12
247.40
204.42
103.80
110.42
98.15
95.08
95.25
91.98
205.26
198.33
447.89
582.63
623.97
666.77
687.92
699.41
667.10
700.19
697.39
694.84
709.15
713.78
405.72
401.24
247.12
212.74
115.63
120.09
108.44
106.51
105.64
104.99
228.14
228.24
480.60
628.49
690.47
745.34
765.54
780.58
719.57
710.85
695.57
681.99
690.65
690.54
383.56
381.66
234.17
202.17
108.98
126.77
125.06
119.62
111.37
111.26
235.73
241.45
489.27
614.86
657.34
707.46
729.41
735.11
692.37
694.01
681.06
688.54
705.19
712.94
414.23
413.15
258.85
220.94
120.91
121.09
93.91
97.03
97.63
97.50
121.77
122.52
199.71
197.13
277.39
274.28
286.09
296.07
296.47
288.43
287.98
278.51
259.83
228.06
179.59
166.09
128.71
117.66
86.19
88.14
77.86
77.37
76.43
76.27
107.45
115.52
201.37
200.00
280.98
286.23
301.72
311.21
314.16
312.56
317.25
317.88
304.19
263.18
217.00
210.03
177.72
178.43
150.66
145.89
145.13
145.88
146.08
144.04
265.37
264.58
507.84
639.03
682.74
707.30
705.46
704.11
663.52
696.59
690.75
682.97
690.06
680.27
378.61
369.10
217.21
181.38
78.73
79.49
67.93
67.67
67.42
67.18
192.76
196.29
455.80
594.70
649.40
694.65
712.73
723.60
695.20
734.08
737.95
735.41
751.17
761.03
451.58
436.63
279.99
241.29
140.42
142.93
134.44
138.58
138.81
134.94
261.80
273.05
527.29
655.20
699.23
736.25
748.44
753.11
719.14
753.00
757.32
761.50
772.06
775.23
457.46
437.47
286.07
253.41
151.61
155.44
147.23
146.02
146.93
152.31
281.80
284.68
540.02
671.79
715.95
752.16
763.62
771.82
702.73
680.25
657.12
668.47
706.39
732.24
437.50
429.77
286.15
259.04
161.23
163.24
151.77
156.40
158.43
157.22
277.74
278.31
528.76
654.59
695.65
734.05
746.42
750.36
713.93
745.07
747.96
746.90
759.51
767.35
464.31
456.16
301.88
262.74
157.09
148.99
119.63
110.37
108.04
102.83
119.30
115.45
188.94
319.50
359.62
486.61
500.12
507.26
481.38
475.54
478.19
398.48
397.02
355.75
307.21
301.89
169.39
159.81
133.58
135.35
103.20
98.36
90.77
78.35
94.99
90.40
169.58
166.57
255.99
262.34
292.64
319.67
323.37
315.25
318.91
319.82
305.14
265.36
213.63
200.43
169.53
172.15
143.93
142.76
149.55
148.28
142.84
141.52
261.75
261.94
511.14
633.95
666.24
695.53
701.25
694.94
648.55
673.25
671.03
672.48
685.31
692.88
399.02
389.01
230.39
193.04
105.98
148.06
160.37
158.49
148.74
140.13
270.63
287.35
531.05
650.38
686.82
729.06
743.30
748.82
714.01
747.05
749.36
751.37
758.91
741.57
416.89
404.43
247.99
211.01
109.86
106.72
90.13
85.25
81.94
79.61
197.29
205.56
458.41
595.52
646.84
699.27
730.67
749.47
714.45
747.64
751.00
753.13
772.61
776.08
468.51
446.67
286.47
233.69
94.53
70.01
37.48
34.22
32.24
30.95
57.83
58.57
141.46
134.84
211.91
209.53
224.19
234.01
242.20
244.41
249.83
256.31
250.41
209.32
158.98
141.03
105.28
95.88
60.45
59.82
63.79
61.76
59.52
54.69
175.07
184.49
432.12
560.55
615.60
667.89
695.39
717.33
691.79
725.33
727.74
726.65
744.68
749.26
433.79
406.19
244.37
200.40
92.77
88.95
72.54
67.06
66.06
63.11
86.63
87.24
166.31
294.39
315.34
450.20
480.56
484.60
457.24
452.24
453.52
371.62
390.04
354.35
300.74
292.17
169.21
169.22
138.26
137.32
110.73
110.80
110.81
107.70
131.46
130.56
215.60
196.96
262.73
252.55
255.73
244.17
236.33
228.09
237.08
249.40
253.11
215.15
171.35
169.04
141.74
141.01
116.04
126.53
125.89
138.19
146.74
143.39
264.04
263.50
520.63
646.43
685.53
720.03
729.32
730.12
696.72
727.76
716.56
700.98
712.46
709.83
413.51
404.27
239.27
190.44
78.69
76.27
65.43
66.69
67.77
68.12
193.88
196.11
456.03
583.23
633.58
670.11
678.96
681.74
649.86
685.79
683.63
674.08
698.11
723.07
428.11
436.62
288.63
252.74
156.72
167.88
156.95
151.93
152.06
151.07
263.22
274.49
532.03
658.24
698.81
728.36
738.64
753.65
722.63
756.73
757.04
755.59
770.37
760.72
429.06
402.82
243.73
202.65
95.94
93.41
78.15
79.22
86.01
86.54
211.27
225.46
484.21
615.71
669.39
722.98
737.31
740.46
704.22
737.13
742.37
745.71
762.21
761.43
458.34
449.67
293.82
260.23
164.91
162.39
140.30
132.90
126.32
124.62
251.78
255.05
512.92
636.40
675.22
705.21
701.20
702.13
685.63
720.32
710.78
704.01
724.70
736.18
449.76
456.16
306.47
269.98
162.83
146.81
124.54
122.58
124.96
121.23
140.63
133.73
218.66
356.91
383.01
501.63
510.70
488.14
460.67
480.53
483.68
382.71
389.92
344.08
281.26
269.32
138.39
130.78
98.58
95.95
63.00
58.64
58.04
56.39
82.96
82.05
164.04
150.22
232.15
236.73
256.33
268.78
276.90
284.25
294.06
292.89
274.60
223.46
171.37
159.85
126.85
123.74
91.50
88.74
88.34
78.28
80.32
80.72
200.45
211.90
461.83
585.72
629.42
669.47
698.08
728.41
705.90
747.93
751.75
749.35
765.61
764.31
461.00
441.49
275.97
231.16
134.97
120.17
101.57
98.71
96.30
92.13
209.17
220.50
477.77
606.75
651.82
690.25
687.09
668.20
616.18
640.53
639.11
641.61
664.78
669.28
363.54
348.86
191.78
153.74
56.55
60.92
49.95
50.02
49.25
50.38
170.19
178.51
435.23
564.79
605.38
638.95
646.34
645.04
606.68
639.08
640.85
646.01
676.36
695.20
381.94
363.91
209.24
172.59
72.07
67.77
64.70
75.96
75.11
73.07
191.93
198.80
456.73
585.07
625.15
659.14
674.35
684.35
658.45
699.32
703.30
711.16
736.48
737.97
415.86
394.09
233.39
194.42
91.52
90.17
76.30
72.90
71.02
71.01
194.11
204.32
459.70
588.03
636.60
682.29
707.35
726.14
703.45
735.59
736.11
736.44
754.57
759.74
460.45
446.96
284.41
235.13
113.65
109.81
89.63
78.17
81.55
85.02
113.71
116.35
198.38
315.14
317.02
431.54
463.53
482.18
463.91
461.53
460.25
373.82
394.36
354.91
297.91
291.57
169.06
165.57
123.98
109.81
82.91
77.92
65.43
61.37
93.55
94.28
175.78
158.50
231.05
230.17
252.73
255.84
243.30
228.40
225.05
225.65
217.47
174.73
126.21
120.31
92.49
93.33
64.75
66.13
70.54
70.99
70.63
70.76
194.68
201.22
467.55
600.59
635.39
671.66
683.78
683.38
644.72
681.96
673.74
652.55
667.76
675.53
393.86
412.81
278.59
253.02
156.67
156.13
146.12
146.83
146.63
151.11
281.62
285.87
541.79
667.98
698.74
726.34
734.49
737.13
701.15
731.47
732.60
733.78
752.97
756.98
459.86
452.44
296.82
257.65
147.49
130.58
105.50
96.70
92.47
92.30
212.56
225.09
483.20
617.80
664.99
714.62
736.12
743.89
712.48
749.37
753.34
754.60
773.71
777.65
458.60
430.08
268.89
228.56
122.54
117.99
104.71
104.44
105.45
104.68
226.30
236.22
501.41
625.55
632.47
644.85
654.95
666.20
633.00
669.44
680.55
679.92
696.99
700.91
397.19
386.63
235.35
193.56
86.14
100.62
90.10
81.05
74.51
68.06
192.59
207.94
476.89
618.79
660.75
703.51
719.70
721.42
684.03
716.88
720.12
721.29
740.92
747.17
446.87
439.04
275.31
233.21
128.02
123.15
105.62
99.58
97.49
96.76
124.11
112.62
186.22
315.41
336.29
471.13
485.24
491.05
464.29
457.14
454.64
357.01
368.38
336.03
277.87
261.33
135.68
135.52
108.28
109.16
84.98
87.14
87.58
74.49
107.15
104.17
184.49
165.76
230.66
225.17
235.69
236.55
234.79
227.81
227.39
228.14
228.21
194.29
154.56
155.82
128.92
135.50
111.54
109.50
109.93
105.93
105.81
107.06
230.28
241.27
499.43
634.77
674.33
712.97
729.24
734.46
698.06
730.07
730.13
728.86
750.16
756.26
447.67
429.27
275.51
236.25
130.08
127.62
113.99
108.69
97.89
88.40
207.69
212.61
465.51
597.09
650.37
705.81
729.40
740.52
705.97
737.99
736.06
735.15
755.84
761.08
456.05
434.85
273.16
227.77
122.34
120.75
102.35
97.12
93.95
88.52
202.73
210.14
469.25
602.16
648.50
705.72
726.23
730.53
698.70
729.35
731.30
736.61
760.46
763.47
453.67
426.89
262.17
219.31
111.12
107.29
92.69
86.11
81.30
77.53
197.12
209.70
471.49
601.99
639.56
693.91
732.97
746.34
714.19
748.13
750.12
750.32
766.90
771.28
471.31
460.05
292.73
246.91
140.62
139.09
129.42
133.77
140.11
135.61
250.11
256.93
512.16
654.57
701.47
735.88
747.74
752.83
718.82
747.09
743.71
739.52
754.25
758.59
459.27
451.85
298.17
263.04
157.29
155.04
143.76
143.84
143.25
139.94
165.97
160.20
241.69
356.80
362.02
471.76
483.15
489.78
463.38
442.05
427.20
329.20
339.40
333.08
290.03
274.90
140.77
123.14
88.50
82.39
53.42
50.78
50.57
51.46
81.78
82.32
170.94
165.13
242.19
243.59
250.60
247.30
246.04
249.29
255.15
253.17
244.46
199.44
145.08
129.15
94.05
92.71
68.43
76.42
67.58
71.35
73.20
76.09
115.50
124.57
207.25
200.46
274.42
271.42
284.24
290.18
294.40
292.51
296.83
284.15
280.95
255.14
204.64
189.32
155.91
143.87
106.33
103.02
107.40
105.68
98.90
97.08
218.03
229.97
483.10
610.80
656.10
709.21
727.03
723.16
681.66
712.11
714.31
716.13
738.72
741.69
450.20
444.14
293.09
257.70
159.81
160.74
144.83
141.37
140.38
138.07
257.56
259.59
520.51
648.95
683.26
720.21
730.71
733.84
697.24
731.33
734.18
738.23
756.38
759.03
458.64
450.35
296.23
253.43
154.75
153.09
120.95
112.14
120.34
104.12
212.34
228.92
499.77
637.66
669.20
705.90
725.81
743.71
712.55
746.71
763.74
760.28
767.46
776.68
473.99
440.17
276.73
235.95
131.62
130.48
118.97
115.32
102.88
88.16
203.21
213.23
474.92
609.94
653.66
688.93
695.93
708.82
677.57
707.36
712.43
707.96
719.70
732.93
433.74
421.71
263.61
229.45
126.80
125.15
103.60
94.06
87.76
81.84
105.24
102.21
188.38
301.16
302.87
412.26
422.55
452.19
452.65
464.75
466.59
374.95
394.19
372.60
322.12
308.87
184.01
180.84
151.73
151.91
128.89
130.90
124.02
115.53
136.42
125.16
208.10
208.46
284.03
286.58
305.27
313.64
314.46
309.25
310.57
311.11
299.96
254.71
206.04
202.89
173.42
168.54
136.53
139.67
