Power [kW]
73.27
82.77
63.80
94.33
111.23
80.70
168.92
158.26
234.72
166.68
286.38
364.43
405.02
400.85
391.45
380.83
399.97
326.63
320.57
270.22
248.56
212.63
34.59
159.85
97.96
69.04
73.22
83.05
85.15
88.24
209.74
201.20
414.54
518.12
493.71
571.15
520.58
512.33
502.85
494.40
515.04
535.85
501.79
461.98
388.61
213.33
23.85
175.54
81.55
82.34
90.81
71.20
144.24
148.24
254.11
227.54
419.87
532.10
515.16
593.01
546.23
539.45
529.47
520.79
541.01
560.68
522.24
466.28
390.34
214.20
19.36
154.90
100.36
85.64
58.10
85.41
101.14
75.18
209.38
201.61
414.71
517.83
493.90
571.21
519.97
512.21
502.71
494.11
514.62
535.16
501.24
460.72
387.44
212.45
46.14
176.50
97.78
58.71
83.64
82.44
74.86
98.64
209.79
201.16
414.51
518.17
493.62
571.05
520.25
511.76
502.24
493.65
514.19
534.65
500.89
460.15
386.81
212.10
56.50
177.53
97.47
60.15
81.67
82.38
116.27
137.75
251.26
224.12
414.80
518.38
493.69
571.14
520.53
512.14
502.58
494.06
514.64
535.19
501.28
444.38
372.13
200.70
40.13
175.34
93.43
54.70
77.12
78.21
71.19
92.50
163.88
155.53
324.53
400.32
494.94
571.94
522.25
517.59
511.47
504.91
527.26
549.21
468.77
335.07
308.60
179.08
17.73
180.94
108.21
71.12
100.43
99.37
92.10
117.38
179.13
172.11
248.32
180.09
294.07
367.25
402.50
396.70
386.99
378.19
398.51
325.68
319.92
268.70
247.26
212.00
53.94
172.04
90.88
63.38
82.78
76.68
79.78
97.86
209.73
201.05
414.45
518.17
493.48
571.01
520.30
511.75
502.25
493.72
514.27
534.75
500.93
460.23
386.81
212.06
59.53
177.41
93.10
63.33
81.09
78.29
119.55
137.25
251.08
223.81
414.64
518.17
493.57
571.07
520.51
512.00
502.42
493.93
514.54
535.02
501.13
444.10
371.79
200.45
54.23
177.30
99.30
58.82
82.17
84.53
75.48
97.71
210.21
201.85
415.01
519.24
494.76
571.71
521.93
517.25
511.13
505.66
528.99
551.07
513.82
474.75
400.25
224.42
33.88
184.88
90.01
90.23
93.70
70.02
96.81
101.43
210.76
202.64
415.46
519.43
495.49
572.29
521.86
514.71
504.92
495.85
515.70
536.02
501.65
460.88
387.84
212.64
46.56
176.72
96.27
61.04
84.47
81.41
116.84
140.35
251.65
224.79
415.21
519.14
494.95
572.99
526.16
522.90
517.92
513.85
527.67
559.65
524.73
475.07
405.59
235.46
53.05
143.51
72.28
60.16
62.20
60.67
64.92
84.18
176.83
164.58
328.69
403.58
500.87
576.85
524.05
516.87
506.74
497.66
507.26
537.72
457.72
321.34
295.83
166.49
17.86
163.70
69.85
71.64
79.35
59.09
88.25
94.48
163.70
155.28
233.71
164.68
284.61
363.02
402.61
395.70
385.99
377.34
387.49
325.26
319.91
269.40
247.45
212.11
35.00
171.62
92.70
54.20
76.76
77.77
70.89
92.42
163.81
155.71
235.49
169.83
294.17
373.60
416.31
409.63
404.98
399.11
409.67
346.11
336.85
287.53
263.23
225.32
35.77
177.93
83.56
90.56
93.67
65.01
138.00
140.99
251.49
224.35
414.81
517.53
493.63
571.06
519.55
511.60
502.09
493.46
503.63
534.24
500.69
443.12
370.93
200.02
61.00
177.61
74.17
80.56
82.10
58.45
96.44
97.26
209.50
200.56
414.26
517.68
492.93
570.68
519.97
511.04
501.59
493.03
503.32
534.11
500.66
459.88
386.35
211.90
61.99
179.16
72.40
80.35
83.62
56.70
96.42
98.84
209.52
200.58
414.27
517.75
492.98
570.72
520.04
511.19
501.72
493.19
503.48
534.30
500.74
460.27
386.76
212.16
48.71
176.83
99.58
58.64
81.89
84.27
115.06
138.52
251.50
224.61
415.10
519.03
494.38
571.56
521.50
513.63
503.97
495.78
506.33
536.67
501.98
445.17
373.01
201.12
44.66
177.48
92.47
55.49
77.06
77.68
72.01
93.00
164.14
156.08
324.85
400.65
495.39
573.76
525.96
519.77
512.84
506.49
518.43
549.54
467.21
331.16
302.61
170.27
39.12
152.44
87.28
79.76
59.37
72.04
95.75
74.41
162.60
154.99
233.51
163.93
283.97
362.69
401.78
394.97
385.49
376.86
387.06
324.78
319.63
269.11
247.04
211.89
56.94
172.62
69.53
81.59
83.39
54.82
97.41
98.51
209.49
200.47
414.23
517.57
492.88
570.65
519.95
511.05
501.60
493.06
503.34
534.13
500.69
460.08
386.53
211.96
59.76
177.35
93.23
63.36
81.31
78.48
119.78
137.52
251.16
223.97
414.73
518.40
493.71
571.14
520.62
512.23
502.74
494.34
504.79
535.67
501.54
444.88
372.56
200.86
50.47
177.00
100.20
59.68
82.96
84.85
75.46
97.45
210.22
201.78
414.91
518.72
494.27
571.39
520.66
513.05
504.01
495.46
505.51
536.25
501.93
462.00
389.85
216.82
25.62
182.70
90.12
89.74
99.75
81.96
113.22
119.63
223.90
217.63
430.51
540.47
517.93
596.69
556.86
563.32
563.89
562.05
568.94
610.50
568.91
536.67
461.65
278.37
84.26
170.23
106.22
87.98
89.31
90.56
150.68
150.91
338.16
321.90
500.77
614.02
597.22
657.29
616.24
596.06
562.54
540.06
534.04
570.58
529.86
474.55
400.42
223.77
32.87
121.74
81.16
78.65
88.50
91.65
88.69
101.52
171.91
159.89
325.92
400.89
496.03
572.56
520.98
513.81
504.18
495.52
495.15
535.85
456.29
320.14
294.87
166.15
34.82
155.88
94.09
65.79
65.48
80.25
82.43
81.11
164.15
156.13
234.29
166.28
286.68
364.94
407.84
404.92
397.24
389.00
389.92
337.92
329.77
279.12
256.15
219.53
16.00
161.03
82.33
82.25
73.53
71.18
99.52
88.53
210.14
191.55
414.85
518.26
494.01
571.25
520.26
512.32
502.79
494.26
494.35
535.46
501.43
461.06
387.65
212.51
36.43
166.76
99.56
65.60
75.50
84.97
121.55
131.30
251.25
214.01
414.84
518.23
493.74
571.15
520.34
512.10
502.62
494.14
494.27
535.43
501.45
444.78
372.51
200.92
41.45
147.79
97.11
84.72
60.41
80.15
100.42
75.34
208.34
190.81
414.47
517.93
493.53
571.07
520.37
512.14
502.64
494.11
494.13
535.17
501.21
460.72
387.40
212.47
46.85
177.11
97.92
60.46
82.06
82.49
76.62
97.19
209.90
191.09
414.70
518.66
494.21
571.40
521.02
512.88
503.24
494.71
494.72
535.71
501.49
460.97
387.76
212.65
44.31
169.84
98.84
64.15
78.96
83.58
120.15
135.11
251.62
214.66
415.28
519.13
494.67
571.64
521.33
513.81
504.81
496.60
496.38
536.92
502.39
445.82
373.98
202.29
18.58
167.75
68.65
76.27
73.89
61.29
95.42
89.84
164.72
146.42
325.32
400.96
495.71
572.37
522.02
514.59
504.92
496.39
496.35
537.29
457.39
321.34
295.80
167.25
35.56
154.16
101.56
83.95
71.96
90.59
102.17
88.78
171.68
154.45
242.00
174.80
293.31
368.39
404.95
396.95
386.99
378.17
377.96
325.89
320.21
269.43
247.82
212.23
53.99
171.42
96.26
59.56
80.72
81.55
75.62
95.52
209.57
190.45
414.32
517.71
493.20
570.88
520.19
511.58
502.09
493.57
493.60
534.62
500.86
460.17
386.68
212.00
58.99
177.41
93.19
63.33
81.13
78.27
119.54
137.22
251.03
213.44
414.58
518.06
493.46
571.05
520.60
512.17
502.68
494.21
494.27
525.03
501.26
444.24
371.82
200.42
53.89
177.25
98.90
58.49
81.53
83.94
74.79
96.71
209.84
190.93
414.56
518.31
493.77
571.18
520.64
512.34
502.99
494.83
494.45
525.11
501.36
460.93
387.53
212.47
46.34
177.33
97.73
60.40
81.88
82.40
76.50
96.87
209.89
191.07
414.69
518.62
494.22
571.42
521.75
514.20
504.81
496.56
496.58
527.20
502.98
462.81
389.62
214.35
6.34
163.45
92.23
61.11
76.44
84.20
123.41
134.78
252.10
215.61
416.87
521.89
498.13
575.86
528.84
523.04
513.07
503.99
502.85
532.84
508.06
451.70
378.40
205.62
12.74
155.96
87.94
76.10
74.25
82.11
96.13
89.83
166.55
148.77
329.29
408.37
506.02
584.99
539.60
534.86
528.48
524.41
523.44
550.04
474.96
339.72
313.15
183.08
20.26
108.11
48.21
77.75
68.70
81.20
101.87
85.89
173.61
156.59
244.83
177.99
297.26
374.18
416.24
411.50
402.23
394.37
394.34
331.17
333.17
284.10
262.98
227.26
19.48
141.03
95.48
101.64
95.42
80.11
116.44
110.66
219.99
215.33
437.36
546.91
522.61
596.51
547.57
538.06
524.24
511.71
507.87
536.35
510.65
469.77
394.89
217.65
12.20
123.47
78.39
76.69
75.89
65.97
130.45
130.38
243.93
217.58
418.04
522.03
497.90
574.14
524.29
517.17
507.86
499.65
499.94
530.03
504.81
447.82
375.71
203.76
9.15
113.24
90.31
61.69
76.68
82.67
80.33
97.69
205.67
199.20
422.25
528.10
502.66
576.24
523.64
515.63
505.48
496.50
496.12
526.48
502.14
461.00
387.87
212.65
35.60
150.16
92.23
83.63
63.72
78.44
99.52
78.73
198.36
190.95
414.54
518.06
493.59
571.06
520.23
511.87
502.36
493.83
493.86
524.61
501.02
460.32
386.89
212.09
55.37
177.50
98.77
58.31
81.32
83.75
114.46
137.47
240.84
213.61
414.67
518.20
493.56
571.04
520.38
511.81
502.26
493.71
493.72
524.49
500.98
443.82
371.51
200.29
53.74
177.26
93.50
52.89
76.00
78.35
69.19
91.13
153.11
144.47
324.00
399.26
493.69
571.12
520.44
512.05
502.71
494.53
494.47
525.07
456.13
320.64
294.94
166.22
32.85
146.58
88.36
76.62
61.54
74.98
94.28
78.56
154.26
146.20
234.95
168.14
290.44
369.45
411.37
405.82
396.38
388.15
388.43
316.05
329.71
281.33
259.42
223.05
14.02
171.29
102.42
72.44
88.73
93.57
92.86
103.11
162.57
154.73
241.79
174.28
293.61
371.32
411.60
406.51
396.88
388.36
388.05
314.26
326.42
275.80
252.50
215.14
39.22
154.13
94.95
90.14
68.14
79.68
141.96
121.57
240.83
214.94
415.35
518.77
494.53
571.51
520.51
512.94
503.30
494.67
494.57
514.91
501.27
443.84
371.78
200.44
46.41
176.58
97.49
60.40
82.05
82.59
76.76
97.36
199.76
191.30
414.82
518.89
494.40
572.04
522.77
515.86
507.37
500.21
501.19
521.03
506.51
466.02
392.44
216.58
12.05
103.07
90.33
81.30
68.94
88.26
98.87
85.35
208.57
203.10
428.67
539.63
518.34
595.57
552.12
542.21
526.47
515.28
512.95
530.53
513.02
471.96
397.67
221.40
17.60
128.12
96.31
71.88
91.42
86.45
130.34
153.72
244.62
230.18
429.07
536.27
511.80
587.80
539.08
532.74
524.17
517.60
521.34
549.12
541.73
502.14
431.16
254.68
69.35
152.49
72.53
47.75
40.87
49.50
111.64
101.12
165.68
168.80
345.11
422.04
515.70
590.90
544.10
541.59
535.62
530.54
527.27
540.58
471.86
334.61
306.98
175.49
10.98
100.03
37.18
63.62
69.14
77.91
94.96
86.17
151.86
155.66
244.92
179.16
298.71
375.74
420.18
417.03
409.66
403.71
404.15
328.62
340.80
288.23
263.27
226.70
17.23
105.68
34.98
46.34
73.47
92.38
89.34
101.41
198.85
201.58
425.78
534.89
513.75
594.44
559.18
558.34
548.97
540.81
539.96
559.03
540.59
507.10
431.71
252.85
55.93
143.06
70.74
50.62
46.88
43.09
108.68
150.28
247.61
227.38
423.81
526.08
500.23
575.27
524.24
517.30
507.01
498.37
497.98
518.04
503.95
446.30
374.04
201.82
11.66
163.48
77.10
73.47
79.99
69.04
93.54
94.86
189.23
190.96
414.55
518.26
494.44
572.08
522.22
514.48
505.57
497.36
497.42
517.67
503.67
462.74
389.10
213.76
4.76
143.72
86.36
75.62
60.38
77.86
101.91
80.72
189.27
192.33
416.91
522.63
500.32
579.63
534.31
529.49
516.42
508.08
509.91
531.61
517.67
481.52
410.93
236.03
35.40
124.81
51.27
34.78
99.92
109.13
147.20
161.31
257.02
241.82
439.57
548.43
520.67
591.86
542.01
533.40
525.80
518.61
518.05
534.16
516.59
461.33
387.32
208.99
12.69
98.52
48.19
71.92
61.15
63.46
93.72
84.08
142.65
144.21
323.83
398.31
493.36
571.14
520.77
513.32
504.31
495.66
495.27
504.68
455.75
319.48
293.81
165.56
29.59
144.31
86.55
77.69
57.89
72.89
93.98
73.26
141.90
144.65
233.48
164.58
284.21
363.25
403.93
397.15
387.21
378.99
379.28
296.34
321.60
272.35
250.31
214.30
4.34
162.86
92.64
69.91
95.55
87.75
93.81
113.14
185.69
198.11
420.23
524.17
497.85
572.78
520.78
513.55
503.87
495.16
494.97
504.96
501.43
460.22
387.19
212.22
40.97
177.44
96.88
58.29
82.96
81.90
114.18
138.81
220.13
213.32
414.54
517.82
493.31
570.96
520.40
511.76
502.40
494.44
494.26
503.90
500.82
443.53
371.25
200.20
40.51
151.78
92.31
82.69
65.82
76.96
99.12
81.24
178.10
191.28
414.68
518.66
495.18
573.03
523.88
516.12
507.66
500.05
498.48
507.36
503.73
463.15
389.43
213.79
5.23
157.98
86.43
57.25
78.05
79.48
82.94
96.88
179.41
192.04
416.48
521.46
498.42
575.01
525.95
518.49
509.10
500.93
500.96
512.15
512.39
476.22
404.78
231.54
30.16
122.21
48.83
55.43
92.92
92.86
164.95
155.22
247.54
243.44
441.01
547.74
522.76
598.46
554.92
554.50
548.42
537.72
529.28
531.43
524.80
472.09
398.77
224.54
34.56
124.19
45.34
29.42
31.83
34.95
74.09
96.33
165.73
181.73
359.25
444.34
542.38
628.23
601.43
611.60
610.89
607.34
610.61
618.91
553.59
422.98
386.78
242.57
82.99
166.41
101.01
77.95
75.09
90.31
87.27
226.20
223.07
292.11
233.14
347.48
408.67
448.70
449.09
443.08
429.87
428.09
331.38
326.27
307.16
286.01
247.11
39.70
119.81
51.97
43.26
44.41
43.63
58.19
70.35
241.93
236.54
447.70
575.73
584.73
692.86
695.74
710.36
705.95
707.43
704.04
693.56
644.47
643.59
546.28
332.95
118.89
196.78
141.07
110.97
103.00
91.91
146.66
141.80
321.31
294.88
476.97
591.82
576.77
651.91
616.81
615.75
610.09
599.08
591.98
580.70
536.34
508.97
429.86
251.98
66.11
150.50
78.87
57.48
53.66
50.74
65.60
62.93
245.40
230.30
450.61
565.14
553.92
639.95
621.22
644.06
651.99
661.75
666.87
644.53
580.23
567.13
475.32
284.65
86.78
173.03
113.92
94.49
93.51
93.08
111.25
112.35
297.86
286.71
512.62
651.98
662.15
730.21
726.76
740.28
724.06
718.25
714.20
706.23
660.07
659.21
572.80
348.11
127.78
200.55
147.06
120.92
118.58
117.51
181.89
180.81
372.98
355.94
551.51
676.36
665.88
722.64
708.93
718.69
703.14
690.71
674.14
659.43
613.16
592.05
514.93
304.56
102.57
171.67
99.79
73.16
73.42
72.25
86.83
82.96
220.36
196.99
368.00
451.76
548.12
619.67
564.36
556.86
545.30
535.18
533.91
527.04
437.76
336.12
305.65
173.13
6.67
93.44
16.64
1.34
13.91
41.98
46.88
84.05
172.85
156.58
246.56
175.51
293.29
371.38
413.62
409.68
399.93
387.31
390.39
303.76
300.07
300.87
283.43
248.13
46.97
138.07
69.20
56.29
56.37
58.33
77.86
79.39
260.48
247.52
462.77
568.39
544.28
612.17
565.72
557.28
541.76
531.29
528.63
523.86
483.50
484.12
408.05
228.24
22.83
111.48
47.49
82.70
74.26
95.74
147.74
132.65
262.33
220.57
418.41
522.70
499.90
576.25
526.98
523.42
518.79
513.62
515.39
513.85
474.37
454.34
379.28
206.77
12.19
100.46
24.90
6.83
49.29
69.00
89.70
99.83
221.33
205.18
429.39
535.85
513.46
595.30
555.89
556.46
549.99
544.88
544.07
541.66
505.50
502.79
414.75
230.16
24.88
113.92
43.87
29.82
34.52
38.42
57.03
58.23
246.88
233.44
457.23
576.65
559.55
642.68
608.35
597.08
574.90
553.01
535.59
521.31
475.23
469.80
393.02
216.60
8.05
96.25
48.59
70.17
71.11
63.10
127.07
126.90
241.82
214.73
415.60
519.11
494.99
572.26
521.84
514.08
504.65
496.14
496.18
496.14
461.96
446.30
373.98
202.16
5.66
136.76
88.36
66.98
57.91
71.66
90.83
80.23
155.33
147.18
326.53
403.28
498.67
574.85
525.63
518.75
509.52
502.08
503.09
502.34
420.84
325.75
299.93
170.57
8.77
100.72
53.45
64.76
78.30
78.41
89.16
99.19
158.80
150.54
239.35
170.68
290.68
367.90
410.06
408.55
403.49
404.31
408.65
309.87
296.09
283.78
254.95
215.58
0.92
133.10
80.68
70.97
66.12
79.26
94.94
84.69
198.86
191.24
414.77
518.44
494.50
572.15
522.58
516.23
508.15
502.43
504.86
504.74
467.09
464.87
390.17
214.24
5.81
134.86
72.60
76.51
71.04
60.22
140.65
134.93
241.45
214.81
416.17
521.43
501.89
584.88
539.86
524.01
510.93
505.63
507.98
505.73
470.19
452.03
378.27
206.61
11.40
99.23
22.99
4.61
53.93
65.06
76.03
93.36
201.76
193.31
417.61
522.46
498.45
575.09
525.76
517.79
508.91
501.10
501.15
502.40
469.23
471.79
395.31
217.13
12.94
112.08
41.96
56.62
99.82
93.57
105.26
118.38
219.25
212.45
433.12
540.34
515.14
591.27
543.16
536.79
527.48
520.31
520.81
519.55
482.91
486.66
409.67
227.61
20.19
138.75
92.60
95.07
101.21
81.99
153.25
158.17
261.07
236.52
434.70
542.49
518.69
595.85
549.92
545.04
535.88
528.54
529.48
530.22
492.18
481.67
408.82
233.19
45.35
134.17
60.16
37.05
35.96
79.72
118.60
108.67
185.46
179.00
354.65
435.97
529.68
603.19
555.97
548.70
537.77
528.19
527.27
526.73
445.27
343.91
326.47
194.11
34.81
124.62
52.52
36.79
38.01
74.35
124.39
109.70
178.80
184.80
269.54
208.25
328.49
403.28
448.73
446.70
438.98
431.28
429.59
335.38
323.25
309.63
295.94
256.49
54.16
140.25
66.53
52.99
49.23
47.14
91.66
112.50
221.72
225.30
444.72
553.75
529.02
602.59
555.86
551.76
543.62
536.10
536.48
535.96
496.87
490.86
423.73
243.90
44.24
131.79
57.37
40.51
39.63
68.54
168.47
153.61
253.06
236.67
434.33
541.57
515.53
588.13
540.98
535.42
524.61
515.48
514.57
512.85
476.27
454.83
394.05
220.24
29.44
118.03
41.73
23.18
66.02
82.80
91.84
101.50
196.83
202.02
428.56
537.50
514.31
586.06
535.63
533.35
526.68
520.45
522.36
521.27
482.84
471.57
404.02
226.15
22.95
111.12
39.68
20.78
19.86
19.43
35.79
34.46
201.86
202.46
426.99
535.04
511.53
586.23
536.92
527.50
516.25
505.83
505.94
504.95
468.41
457.84
394.17
221.22
24.31
116.08
43.40
40.50
86.27
77.05
150.74
143.72
241.84
226.16
424.66
530.37
506.11
581.49
530.42
523.03
512.60
503.73
506.60
507.80
470.55
443.97
380.72
206.03
12.40
99.93
33.93
50.26
58.37
71.65
77.53
77.27
143.42
146.45
326.81
402.83
498.64
574.96
525.43
518.28
509.46
501.38
501.89
502.21
421.13
315.04
299.37
170.54
3.20
91.40
47.64
64.94
67.42
58.67
83.44
86.92
144.83
147.71
238.25
172.07
296.62
377.51
424.97
423.53
418.34
414.22
415.22
318.45
312.56
293.50
277.07
234.82
22.29
108.72
34.10
19.37
16.59
15.91
33.57
35.04
207.66
217.90
449.75
572.55
562.64
644.99
616.55
618.41
613.70
606.83
606.95
605.77
562.04
562.56
496.99
300.95
98.51
180.13
118.14
95.25
93.94
94.87
157.13
156.41
321.40
299.67
469.58
578.33
552.54
621.04
571.97
565.58
553.75
540.61
533.19
522.14
478.29
447.72
380.40
205.43
10.65
97.72
19.98
32.35
54.82
75.47
85.12
93.16
182.58
194.95
418.34
522.63
498.59
575.16
525.80
519.21
510.60
502.59
502.71
501.96
466.23
455.79
392.37
216.53
8.33
96.98
46.91
56.36
72.21
71.60
79.76
89.17
180.16
193.30
417.53
522.35
498.92
575.31
526.10
519.78
511.23
504.70
507.18
503.84
467.23
456.91
393.02
217.75
15.18
104.20
29.23
41.39
78.91
89.23
121.43
145.91
229.73
225.99
427.81
536.72
515.09
591.59
545.33
539.34
528.96
523.29
531.25
532.71
494.36
472.54
402.15
221.22
27.03
116.94
60.99
48.16
51.97
54.74
73.73
76.57
188.64
210.55
388.16
478.24
577.25
652.44
610.09
608.71
600.16
589.20
588.52
586.82
494.72
386.77
373.05
233.03
73.83
156.15
91.50
71.43
68.97
66.36
75.04
59.50
163.48
178.10
268.84
207.72
330.37
406.67
457.35
459.01
451.61
439.30
441.17
342.74
333.60
302.12
292.74
251.17
41.97
125.82
54.83
42.62
43.03
42.98
58.63
56.69
211.85
229.25
456.92
585.28
578.94
661.61
626.74
617.30
598.10
572.33
554.54
546.57
495.73
471.84
410.24
223.11
11.06
97.96
18.68
46.47
64.63
59.98
134.45
128.78
223.03
217.64
418.90
523.71
500.28
576.71
531.46
525.79
517.66
510.14
511.78
512.53
474.12
432.73
377.99
205.99
10.78
98.72
22.57
18.26
45.88
55.18
90.13
89.27
182.90
196.02
420.70
527.21
507.77
590.40
550.05
548.40
538.95
527.18
528.61
530.07
494.30
474.14
413.24
232.74
23.67
106.84
32.81
18.41
20.40
20.99
65.48
66.40
199.67
216.94
440.19
552.96
536.13
621.79
595.31
600.08
594.56
583.72
582.42
584.63
549.06
545.78
480.54
285.29
81.51
165.30
101.52
80.27
80.39
81.72
140.73
140.04
282.00
292.02
483.40
597.57
580.12
650.98
619.97
626.58
619.49
614.20
620.96
611.12
562.12
534.74
475.37
277.41
84.30
165.87
95.21
64.18
58.12
52.40
64.81
59.65
159.78
186.81
368.75
454.92
550.29
631.76
600.01
603.87
595.61
587.57
593.90
597.82
494.63
380.04
365.06
224.63
69.01
152.80
85.87
56.75
48.60
42.54
56.56
54.78
162.00
195.88
290.55
236.57
363.87
437.79
497.26
496.85
494.82
495.00
494.82
397.00
381.28
337.87
314.40
269.09
54.69
137.55
73.46
56.97
53.33
51.28
68.79
70.16
213.13
242.54
464.59
579.93
557.10
630.45
589.23
580.99
567.75
558.08
556.57
551.09
505.25
486.79
429.00
247.38
47.31
136.60
69.63
54.04
55.19
55.89
112.08
112.31
254.80
264.48
461.75
571.42
550.53
623.54
585.44
590.40
589.35
595.19
610.22
619.88
573.54
533.14
464.88
271.19
80.25
162.10
94.43
75.00
74.45
72.84
88.86
86.17
227.73
261.99
487.76
612.03
604.20
678.27
649.82
647.08
630.00
615.73
612.31
607.83
558.02
541.03
479.27
285.48
83.99
166.98
101.26
78.91
77.69
74.43
88.05
87.19
229.73
262.22
491.62
622.57
624.27
715.95
724.76
769.49
775.59
775.14
773.65
764.51
702.62
677.11
580.11
364.87
111.94
191.19
137.83
108.09
108.14
108.65
179.61
175.51
327.22
353.77
561.78
704.64
711.52
795.47
791.69
801.04
773.16
755.71
761.93
745.97
681.55
644.10
565.49
342.44
126.33
199.82
140.35
98.02
89.45
89.68
102.75
91.23
186.34
212.53
385.07
468.30
559.41
631.32
587.59
584.38
578.32
573.96
578.84
578.76
488.56
379.21
365.64
227.00
69.25
154.09
86.81
67.83
67.69
67.89
84.77
84.26
186.79
220.43
304.67
247.15
365.32
435.35
483.55
483.31
474.51
465.19
467.80
374.99
364.63
333.34
336.13
290.71
84.80
166.27
101.63
84.70
62.67
49.91
65.79
67.60
214.03
251.29
488.34
624.25
612.35
700.19
679.12
688.89
694.63
692.62
688.78
673.53
621.03
595.42
535.12
328.21
83.47
162.19
106.79
81.13
80.00
80.24
145.40
132.89
287.47
306.37
516.55
655.62
658.46
744.80
740.55
754.34
752.07
741.84
736.21
731.89
672.54
620.44
538.58
339.13
100.93
182.90
135.72
109.46
112.03
110.97
127.87
115.14
274.06
317.30
554.81
697.81
698.22
771.44
763.26
778.52
771.47
764.33
758.04
768.19
710.76
683.47
600.89
390.61
121.57
197.35
145.54
112.25
108.36
106.38
126.35
116.74
279.17
322.73
553.82
693.37
694.07
773.31
778.29
804.49
792.59
797.73
800.73
785.64
717.51
688.80
617.19
409.17
128.68
207.70
165.34
134.27
132.87
131.87
202.68
189.86
357.65
369.30
542.89
642.72
621.32
691.21
660.87
639.42
615.52
604.11
609.02
613.60
570.29
527.10
454.88
245.71
39.10
121.09
50.72
24.04
27.60
31.95
42.48
23.67
138.04
165.39
351.02
434.58
531.79
611.95
571.87
568.52
554.56
548.91
555.17
553.03
462.12
335.12
331.40
193.17
26.41
107.36
34.12
16.77
16.05
14.64
31.17
19.85
137.76
162.23
250.03
187.00
312.37
392.48
445.87
444.28
435.01
420.47
416.82
319.27
310.75
276.63
284.26
242.89
32.19
118.87
39.70
23.75
23.50
32.18
58.29
52.59
207.69
235.87
458.15
578.66
570.17
648.68
625.11
628.82
614.07
590.75
581.52
574.20
527.33
501.40
450.44
267.84
69.48
155.71
90.92
70.96
69.43
70.18
124.61
111.71
264.93
282.48
484.65
606.81
595.39
675.41
649.32
659.49
651.07
649.26
656.14
655.95
606.42
566.97
513.59
308.28
112.84
190.72
132.36
105.70
101.53
97.87
111.75
95.57
247.98
284.76
514.10
643.17
629.14
701.03
688.04
691.85
675.34
674.46
681.37
675.08
622.31
601.03
532.04
322.84
88.91
173.19
120.13
91.85
88.98
85.99
101.14
85.04
243.68
292.65
529.03
671.98
661.89
734.68
728.08
762.64
755.35
719.13
714.44
727.35
695.38
680.15
615.94
389.98
137.21
208.90
159.42
127.41
122.59
117.93
182.18
167.06
329.69
359.31
569.58
715.52
728.27
800.41
800.24
806.73
783.34
763.71
755.39
705.69
635.59
599.13
534.76
304.02
98.86
172.76
104.34
72.73
67.91
63.53
77.86
62.21
169.92
196.97
375.70
463.40
560.02
637.94
596.54
593.20
588.04
584.48
591.50
584.23
488.64
356.42
346.72
204.55
35.61
119.27
49.14
26.81
24.67
23.46
40.68
29.36
150.15
181.03
272.80
211.66
334.93
412.26
463.29
459.45
450.94
443.51
444.70
344.26
335.32
296.62
294.60
248.99
38.66
123.16
55.64
40.69
38.96
36.85
51.75
39.92
199.91
232.23
461.35
585.44
558.38
633.13
597.19
597.98
594.77
586.60
588.22
579.63
536.91
499.94
450.56
255.70
48.87
135.21
69.52
49.49
50.31
49.33
107.27
87.98
254.61
270.77
472.39
587.80
563.63
636.83
601.16
597.74
590.16
582.66
583.84
583.39
538.38
491.61
455.11
269.40
83.04
168.27
103.86
81.32
79.42
76.03
91.21
69.33
229.82
255.77
474.68
590.73
572.99
643.04
604.64
602.80
592.16
582.36
584.75
583.81
541.22
506.38
463.91
274.50
75.31
163.13
100.33
83.18
82.98
83.77
101.87
81.53
247.40
281.14
497.12
609.43
594.02
660.36
622.94
618.93
608.39
603.32
604.59
605.11
562.77
531.11
494.21
299.26
98.00
178.38
115.99
95.12
95.37
97.57
160.48
142.90
314.80
337.02
533.12
661.00
659.97
722.94
696.57
692.39
685.43
691.48
686.76
682.25
625.19
575.41
535.72
331.10
126.51
201.53
149.88
108.90
98.75
89.76
102.23
74.91
191.92
219.66
395.09
485.53
586.68
654.63
612.86
612.07
597.94
586.02
582.76
577.07
485.14
355.80
366.60
227.01
68.21
153.89
88.81
71.40
71.03
69.86
87.01
65.66
188.94
220.12
303.06
243.24
360.39
434.37
487.78
487.09
478.12
473.48
477.88
384.86
375.35
344.01
361.52
310.78
101.15
180.97
119.76
103.31
101.78
100.97
118.47
95.45
262.50
300.18
517.30
631.28
618.77
680.64
649.31
646.41
632.80
621.48
619.68
616.50
568.80
537.94
505.82
307.82
105.73
185.30
124.24
103.33
102.85
103.77
166.19
145.72
316.36
333.28
521.51
635.42
622.53
679.95
650.36
651.88
640.09
629.09
624.21
620.44
574.57
523.77
490.56
295.17
104.67
181.13
117.28
96.18
95.20
94.78
112.28
90.49
258.94
297.03
517.09
637.48
630.98
694.89
668.90
669.88
662.75
658.07
657.48
653.25
599.11
562.08
523.05
315.78
109.04
185.59
124.08
101.25
98.89
94.39
110.45
88.41
253.82
284.47
498.01
609.69
591.55
654.89
616.57
611.80
600.42
592.91
592.61
586.10
537.44
505.75
472.35
285.09
85.93
168.30
104.33
86.87
88.23
89.64
146.54
124.75
291.55
308.00
502.56
616.99
606.70
671.69
637.61
639.57
633.39
630.51
631.59
632.19
586.32
538.35
507.04
305.63
112.55
189.11
129.85
101.27
99.94
99.28
115.85
94.46
222.79
261.63
434.09
525.97
622.20
687.92
657.88
654.33
646.80
647.07
656.21
650.94
542.88
411.50
417.79
268.97
105.24
184.38
127.47
104.73
102.35
99.43
114.34
91.28
220.50
263.48
349.89
301.51
420.78
479.98
546.72
542.62
520.86
503.39
497.60
398.18
382.45
339.08
344.70
291.55
79.23
160.75
97.41
75.85
73.12
70.50
89.75
69.37
194.76
234.49
328.86
279.32
398.77
473.19
544.35
553.55
537.86
515.22
521.67
425.55
388.87
341.69
362.32
313.13
103.92
179.18
111.28
82.40
67.34
57.75
112.13
88.58
253.17
264.42
464.46
583.71
562.82
634.60
592.53
583.54
569.73
558.84
562.13
559.72
518.77
458.83
414.69
229.11
33.99
117.79
44.38
25.69
24.88
23.64
39.11
17.86
188.01
216.31
444.61
559.06
535.47
619.16
583.55
583.89
577.80
575.97
579.25
580.33
540.14
496.63
441.49
246.92
37.39
123.80
54.62
40.70
51.55
61.06
83.60
61.82
227.99
264.66
496.33
628.78
623.39
699.35
675.81
681.99
689.73
698.01
694.44
680.66
630.03
604.63
543.66
351.05
118.86
191.66
134.86
105.52
104.85
104.86
170.27
149.69
321.50
346.87
551.38
693.43
704.53
772.91
777.76
808.51
802.94
798.43
795.18
788.77
728.64
672.07
609.57
402.86
143.62
212.96
163.69
128.00
123.23
123.43
143.86
121.21
255.20
302.05
484.82
590.10
692.46
747.18
738.44
773.99
778.31
781.58
793.22
791.18
669.43
537.68
520.81
344.97
131.11
199.69
150.55
123.48
123.07
122.41
140.29
116.38
248.96
300.25
383.84
331.16
456.13
507.87
555.33
546.19
525.18
510.99
506.75
397.99
372.02
321.98
314.71
271.97
57.15
136.63
61.87
45.88
44.31
40.87
55.22
31.60
200.76
232.44
459.15
581.46
561.17
640.91
606.44
608.08
603.46
606.84
616.57
615.94
573.02
537.37
475.16
282.74
64.50
147.36
82.73
60.21
59.26
58.28
116.36
96.30
267.75
290.59
503.67
634.39
622.90
696.65
676.90
688.08
691.94
694.55
702.04
712.01
664.63
615.68
553.78
350.98
133.03
204.29
152.42
123.53
123.31
122.64
141.51
120.48
293.25
338.18
571.12
709.94
708.50
763.19
760.24
773.80
754.32
754.55
754.12
737.11
668.04
625.59
547.40
346.72
104.40
180.59
120.82
87.78
83.85
81.13
100.68
81.93
253.60
289.92
525.07
663.52
654.60
719.29
677.61
666.87
645.27
633.03
641.29
647.88
600.63
568.12
526.91
330.77
117.45
194.02
141.16
116.75
116.81
119.09
188.62
170.77
347.35
376.57
579.60
707.75
701.52
756.90
767.34
799.51
782.41
770.12
762.34
763.61
708.99
649.26
591.83
393.34
143.51
213.43
165.30
133.41
130.05
126.86
144.48
121.63
256.09
312.36
500.22
615.34
718.67
782.70
764.78
754.53
738.30
733.75
722.43
705.04
562.39
447.72
444.76
295.38
118.77
191.60
133.33
103.47
101.59
99.91
117.56
94.72
224.26
264.16
351.62
296.97
412.72
478.36
534.21
530.35
514.14
504.85
503.07
397.45
380.49
340.79
337.42
295.78
84.85
161.28
93.57
73.65
69.64
69.79
88.60
56.52
234.41
272.03
504.19
634.13
615.07
689.60
663.63
669.47
660.47
665.22
671.07
670.56
620.94
563.91
492.75
299.77
85.56
165.70
104.17
81.84
83.13
82.92
141.58
109.79
291.45
311.74
512.48
634.89
617.04
701.14
685.84
697.44
696.40
703.88
683.39
656.41
604.81
554.16
499.64
307.43
97.54
178.56
123.79
98.61
97.09
94.39
110.62
79.54
263.10
303.26
529.37
653.45
647.32
707.28
676.08
671.03
657.97
646.01
642.76
643.16
597.31
566.88
523.31
323.93
114.23
190.89
135.60
112.33
113.13
113.88
133.03
100.98
281.57
328.82
551.58
674.42
659.25
711.65
685.41
692.59
688.29
702.26
702.25
687.80
638.26
602.85
553.96
345.72
121.49
193.23
138.47
112.01
112.04
111.37
174.74
143.19
325.22
348.76
545.58
679.90
691.75
755.67
753.66
774.53
755.07
745.21
744.72
738.97
662.75
601.10
547.77
339.55
125.71
200.46
148.96
115.44
113.42
112.44
131.74
100.77
241.25
290.31
477.04
593.53
701.99
772.40
771.25
793.31
780.97
759.87
755.01
749.72
620.92
486.00
467.78
310.19
125.56
197.74
148.44
120.30
118.13
117.15
136.87
103.52
241.60
287.70
377.68
345.74
480.46
552.02
633.13
650.40
632.83
628.68
635.58
491.98
446.87
416.71
408.78
350.14
124.73
197.75
149.06
127.67
126.35
126.00
144.59
121.50
296.80
347.35
575.61
707.63
714.00
777.28
775.88
803.14
799.57
780.64
704.24
673.86
636.21
616.99
568.51
356.99
129.88
203.20
153.46
126.15
124.30
120.24
183.18
161.56
334.20
362.35
565.79
700.69
694.51
754.81
740.13
755.14
735.60
732.35
739.90
734.21
675.31
619.12
566.98
369.93
136.87
208.85
161.87
132.69
130.65
130.07
150.23
125.84
297.15
339.45
564.00
687.67
677.93
731.66
709.65
722.21
711.86
713.93
730.01
741.19
690.50
669.84
606.86
390.37
137.86
210.79
164.12
135.17
130.91
128.73
146.40
121.69
295.33
355.60
595.51
746.30
762.11
822.22
816.10
837.37
811.47
798.18
791.73
782.81
711.51
670.58
605.30
412.85
141.09
211.64
166.36
141.33
138.16
136.54
205.50
184.88
375.88
405.58
597.69
728.51
725.40
778.24
775.61
795.44
801.72
811.33
806.98
778.34
699.11
634.45
569.84
377.59
133.50
208.83
160.42
124.64
122.29
120.05
137.19
112.93
246.04
294.81
475.21
582.04
683.48
747.70
722.57
735.63
721.45
719.86
718.40
713.62
602.85
472.22
451.86
302.06
115.06
189.77
135.79
107.09
105.47
105.52
122.85
92.59
219.62
272.19
363.44
315.72
435.38
500.71
580.09
588.11
571.88
565.47
563.87
461.18
437.86
406.47
397.93
341.92
117.05
193.25
138.35
115.11
113.14
111.47
129.04
104.23
276.50
325.56
567.42
705.45
704.90
770.28
762.18
776.28
767.20
772.88
774.92
764.84
701.49
671.32
600.14
408.75
141.10
211.95
163.11
133.11
130.83
128.99
196.55
172.19
351.67
379.45
587.89
728.83
733.84
809.54
823.04
850.25
844.90
835.81
822.69
792.14
720.43
680.96
634.27
423.79
147.81
217.02
171.17
145.14
139.18
136.87
155.09
130.51
321.64
374.69
613.06
763.82
758.87
816.71
822.90
846.66
821.31
818.87
822.63
815.44
755.92
729.78
651.81
439.90
149.17
219.77
176.67
152.71
146.90
145.58
166.40
141.08
338.36
376.10
596.11
731.01
734.12
807.76
816.67
857.84
846.11
836.48
850.31
854.98
799.04
773.64
706.50
487.99
146.20
210.91
166.86
142.57
138.96
138.76
207.82
185.89
382.40
416.76
624.61
763.01
763.25
815.77
820.36
844.63
830.91
825.61
826.14
823.78
759.49
680.96
623.62
403.82
139.75
209.74
162.08
128.47
123.73
120.49
137.13
113.50
243.33
283.88
452.68
552.89
671.55
745.39
735.81
746.77
730.32
735.56
744.45
740.39
625.33
491.25
463.79
318.25
110.36
187.84
136.21
107.47
110.00
109.24
128.48
104.37
237.16
283.62
374.63
330.74
453.48
526.94
625.62
648.44
619.83
599.98
598.91
492.05
457.70
421.22
412.09
354.61
126.89
198.69
151.42
132.27
131.03
130.32
149.60
125.33
296.85
346.97
572.94
697.65
689.10
737.00
717.78
728.19
709.09
703.14
706.58
704.74
647.90
613.18
565.63
360.41
130.38
203.90
156.13
122.67
120.34
118.21
137.44
114.49
244.05
291.64
379.48
335.89
463.85
525.50
605.05
607.67
593.80
587.10
583.76
474.39
443.61
410.28
402.28
346.01
120.74
195.13
145.39
125.57
125.36
124.86
144.50
122.67
295.48
334.52
551.42
677.11
667.19
715.99
695.52
703.73
688.09
678.43
675.52
673.90
625.47
599.26
554.36
345.14
126.83
200.22
150.87
125.82
125.62
126.53
145.69
122.86
294.45
342.15
567.67
702.37
699.43
745.58
734.14
759.58
774.43
795.31
805.70
794.65
709.47
662.34
609.48
396.77
143.82
212.51
166.13
143.79
139.17
138.54
208.03
187.30
381.01
416.39
616.89
763.93
796.38
857.43
815.95
765.54
733.01
725.84
761.64
786.45
729.83
670.62
607.59
400.41
143.39
212.68
166.01
134.94
129.31
128.89
148.77
126.13
266.48
327.13
510.71
622.30
739.17
830.56
839.75
862.15
849.87
845.89
862.73
857.73
729.84
590.05
563.13
405.68
146.49
212.81
165.69
135.30
125.65
120.55
135.14
109.53
245.46
293.72
380.95
330.83
455.55
526.60
615.47
629.33
622.56
618.01
623.44
535.33
502.22
442.88
410.58
362.20
93.41
172.56
116.42
92.53
90.53
90.12
111.10
89.97
263.76
307.11
547.68
686.26
675.69
753.50
752.14
763.47
754.89
756.29
758.07
747.29
702.70
679.49
625.22
420.06
142.56
212.48
164.57
134.52
131.43
129.37
192.58
167.68
346.24
369.32
574.48
707.49
703.61
786.72
789.30
791.77
780.10
779.83
785.86
777.18
709.52
653.80
574.81
371.85
122.95
202.00
152.27
123.15
120.86
119.99
138.36
115.39
290.34
339.18
574.62
709.72
714.72
779.25
763.82
768.95
739.77
725.26
726.66
730.08
668.23
633.32
581.74
394.43
139.40
212.87
166.89
140.32
138.15
138.98
160.15
133.52
312.62
355.94
574.42
689.46
675.92
736.88
728.94
755.19
759.03
774.09
779.85
777.26
716.87
679.75
620.70
410.67
142.34
211.09
163.54
138.45
134.53
132.53
198.26
176.16
357.73
383.52
581.49
710.88
710.01
761.10
768.51
791.66
793.02
777.38
772.20
771.09
698.68
650.82
603.06
405.09
141.04
204.80
152.25
114.56
110.23
107.24
123.44
99.37
231.28
277.22
468.16
581.22
685.63
762.94
755.67
777.87
762.83
764.82
775.16
771.89
659.05
527.06
500.79
343.20
125.69
201.14
151.81
119.73
118.03
117.25
136.48
112.01
247.47
300.19
397.23
362.88
493.41
570.09
666.48
689.25
683.54
682.18
688.76
600.68
557.35
510.97
478.27
423.61
139.17
209.97
161.91
136.29
131.69
130.19
151.52
129.57
314.47
366.71
605.85
765.00
790.77
861.23
871.86
896.22
906.09
903.09
880.10
864.29
794.49
757.57
688.88
476.59
155.38
222.88
175.75
149.09
142.47
140.07
210.70
187.70
388.35
413.82
626.20
797.95
827.03
886.22
886.85
915.06
905.34
904.02
897.62
878.53
809.68
742.15
673.64
472.60
157.82
226.88
182.32
157.17
150.11
148.46
169.36
155.93
368.83
413.36
657.55
833.83
866.29
939.55
968.88
980.91
964.27
953.46
950.58
939.96
873.49
835.22
701.58
461.26
152.21
220.95
176.22
155.35
148.33
147.44
168.01
156.70
375.41
423.67
670.97
846.37
880.32
958.51
973.68
987.27
981.83
958.62
941.94
932.67
861.52
823.44
752.20
531.00
164.69
232.61
189.16
166.12
159.21
155.14
228.25
215.39
451.96
463.83
701.79
890.32
918.59
973.27
977.59
1000.00
975.03
911.24
927.21
926.74
760.53
674.60
642.24
455.21
154.32
222.98
179.48
152.86
144.76
142.21
163.41
150.23
308.98
358.74
542.74
661.52
788.33
866.50
870.13
884.35
881.52
856.88
818.33
772.17
645.60
521.90
514.40
356.61
140.50
210.63
167.60
147.06
143.43
143.97
164.57
152.23
317.06
368.96
460.42
429.53
575.18
636.06
767.48
809.49
814.26
810.64
809.29
579.91
475.05
452.17
455.72
399.59
139.71
206.75
160.99
144.54
140.83
140.58
160.99
145.73
310.93
352.53
574.46
706.31
700.80
773.01
762.92
778.05
772.28
782.24
796.07
787.21
719.91
689.77
621.63
415.60
135.90
213.40
168.24
140.39
138.99
134.29
200.11
186.59
361.69
391.33
579.07
712.62
715.34
763.80
748.44
754.49
741.71
722.45
734.41
755.92
705.64
659.64
609.95
406.33
147.46
214.08
168.40
145.92
140.72
140.34
161.32
149.57
334.44
385.51
619.98
761.65
763.21
815.86
821.45
823.33
777.02
746.04
750.19
743.48
673.98
638.90
596.45
368.73
134.78
205.46
157.40
131.56
130.13
128.86
148.46
135.49
297.44
344.20
567.95
696.81
692.45
740.10
719.16
729.48
719.85
719.86
718.40
714.11
663.36
636.64
586.61
375.16
133.45
204.62
154.91
126.69
124.10
121.56
187.06
174.84
337.32
361.30
559.77
692.27
689.77
749.94
746.70
771.72
747.69
737.23
735.13
729.43
675.73
626.24
581.17
381.71
138.37
209.82
164.03
131.05
128.27
128.17
146.95
132.53
252.06
295.74
475.21
581.53
679.63
733.05
718.78
720.67
687.95
673.45
682.88
694.57
594.01
469.02
468.05
306.83
125.76
198.82
149.39
122.71
120.04
119.08
139.13
126.17
245.11
291.68
377.37
332.76
452.71
506.27
577.59
585.56
578.50
579.05
587.07
484.51
455.50
419.36
422.76
361.35
127.02
200.31
153.39
130.37
130.06
129.25
148.88
137.44
307.79
355.92
585.12
723.24
713.27
757.95
770.77
816.26
817.84
804.10
814.27
817.75
746.22
712.28
655.92
431.94
147.37
219.70
177.19
156.16
150.56
150.33
224.39
214.79
439.40
450.98
651.09
807.16
819.52
873.89
888.30
925.37
917.70
900.95
897.09
886.80
818.07
763.38
716.27
500.61
161.46
228.16
185.68
164.01
158.19
155.10
176.71
165.23
411.26
431.55
669.42
841.64
856.18
900.99
897.77
915.16
894.51
863.83
843.73
823.19
744.54
699.94
657.04
450.10
150.53
219.02
174.39
153.01
146.44
146.02
167.52
156.82
367.42
408.58
640.42
791.75
800.80
853.37
853.98
878.15
861.69
839.88
831.15
818.88
747.73
711.08
668.75
455.42
151.95
221.37
178.97
159.31
153.09
151.94
224.79
224.02
433.42
444.35
642.39
790.01
800.38
847.68
845.19
861.93
843.78
826.21
824.03
822.28
762.10
713.50
665.83
446.62
152.41
220.19
174.48
144.60
138.03
137.45
158.68
158.44
303.88
350.68
539.68
672.21
811.83
876.58
878.30
900.38
891.51
881.95
889.15
881.52
750.92
615.32
594.58
422.48
148.72
217.55
173.62
149.86
142.71
139.99
159.06
156.54
299.29
340.74
427.08
394.30
534.22
604.68
711.02
735.82
693.85
641.21
600.37
487.84
471.28
450.78
457.86
398.57
137.59
206.17
155.99
130.34
122.68
115.62
128.61
124.35
276.91
318.02
546.50
674.05
659.31
724.03
705.02
718.86
711.05
715.53
735.63
745.38
692.92
665.94
624.58
411.97
142.34
213.76
168.54
141.93
138.91
138.94
211.50
213.00
399.25
422.41
628.46
785.93
805.09
855.91
847.08
860.05
827.28
810.68
807.77
793.79
721.17
655.27
591.62
390.05
122.16
199.11
152.18
122.53
122.76
122.92
145.20
145.59
321.46
361.41
591.36
726.37
724.42
788.11
775.04
786.78
769.12
767.52
777.02
773.55
716.35
700.15
630.93
417.50
140.36
214.29
168.80
141.55
139.74
140.10
162.19
162.00
350.22
393.44
632.78
799.46
827.03
891.55
900.25
927.70
883.14
813.98
759.29
737.99
681.61
666.40
618.02
399.73
139.84
211.44
166.82
144.03
141.14
140.41
211.14
211.94
395.15
420.70
610.88
734.95
720.34
750.41
717.00
713.20
684.94
670.02
665.61
660.58
609.11
568.38
525.01
318.51
118.18
193.68
139.66
109.30
107.83
106.31
123.48
120.67
226.22
262.76
432.90
524.61
617.20
680.88
647.54
646.31
631.69
619.67
616.76
613.69
519.19
400.60
396.96
251.40
89.85
170.29
109.24
88.66
88.35
87.74
105.10
105.02
211.65
249.09
333.75
280.32
401.73
474.64
545.69
551.90
544.61
539.92
547.82
448.97
426.91
400.38
389.98
328.88
106.67
185.29
130.15
108.50
107.37
107.79
127.79
128.64
281.21
325.22
553.26
689.33
689.18
748.45
739.63
768.09
748.91
731.57
723.48
713.77
653.75
635.28
585.01
366.70
132.32
203.44
146.50
109.77
100.23
93.52
152.63
150.00
296.83
304.42
497.55
620.59
599.70
673.85
646.82
650.76
643.28
636.04
638.21
631.96
579.26
533.39
476.68
279.54
83.96
165.64
104.71
82.29
81.09
80.33
98.38
99.07
248.17
284.63
510.88
639.12
628.88
696.68
669.96
669.35
656.30
646.54
646.91
643.60
595.04
576.01
510.99
304.79
77.26
154.69
88.36
60.13
55.63
53.21
70.14
70.52
222.13
256.30
486.98
615.23
598.97
674.94
647.07
649.95
641.65
634.34
637.21
635.71
590.62
572.48
508.26
306.94
85.39
169.40
114.22
90.85
91.62
92.33
157.72
158.69
310.15
326.35
523.52
650.62
644.27
706.14
677.80
674.83
656.98
649.35
653.15
654.66
607.37
568.79
526.81
319.31
119.50
195.94
144.16
114.86
115.25
115.29
134.99
133.67
241.65
284.83
463.99
580.36
695.00
758.29
747.17
770.34
762.06
756.94
764.89
756.55
628.81
506.88
492.76
322.53
128.85
200.17
151.90
123.55
121.04
118.96
137.08
136.18
256.99
290.98
378.34
333.46
460.39
525.26
606.77
621.69
610.04
603.45
607.54
502.99
469.69
454.37
432.98
366.77
128.72
200.61
151.84
128.87
127.64
127.09
146.97
145.89
312.22
347.96
573.06
698.56
687.40
737.41
721.49
739.42
729.00
731.83
744.61
743.63
683.03
671.47
606.88
392.69
138.34
208.64
159.45
129.76
126.22
124.10
188.33
188.59
355.69
371.40
576.15
716.04
726.63
787.71
778.63
795.46
777.77
768.73
770.42
764.44
700.32
665.08
596.23
383.95
137.96
208.69
159.62
130.57
128.09
126.88
145.75
143.35
306.26
338.81
567.77
703.29
705.24
759.77
752.77
774.67
756.36
748.08
752.16
746.52
679.17
661.52
603.13
387.23
138.40
210.10
164.34
139.45
137.23
137.20
158.36
157.89
341.91
379.52
602.83
732.77
726.98
774.54
778.62
806.68
799.55
784.38
779.29
772.02
707.82
696.49
635.69
422.26
146.48
215.46
170.48
148.10
143.70
143.55
215.39
215.88
414.13
428.02
625.93
768.61
781.17
837.59
845.86
874.07
870.31
865.47
876.20
867.38
791.81
750.50
680.38
462.47
156.11
223.73
179.02
150.55
141.83
137.51
153.96
148.16
277.83
304.53
480.69
586.69
687.33
754.81
748.76
774.27
759.66
754.18
760.04
752.95
631.07
517.10
493.33
329.60
131.06
203.74
158.11
132.33
132.27
133.83
157.06
157.57
308.87
347.31
433.48
404.19
546.73
618.75
733.93
760.13
745.21
725.93
724.75
631.36
579.98
554.08
512.18
448.58
142.50
209.87
165.05
147.96
143.62
143.32
164.70
163.07
354.31
388.82
618.79
764.65
780.94
837.45
839.62
864.13
852.46
837.89
837.28
824.90
750.51
730.98
659.25
441.13
147.95
217.06
172.56
150.42
145.92
146.42
220.14
221.47
436.72
443.81
642.47
789.13
797.84
846.39
847.65
866.93
852.43
835.17
832.43
814.89
730.72
678.96
610.77
403.73
145.39
216.35
173.07
152.11
147.86
146.67
167.29
165.91
368.45
402.03
632.45
775.17
786.19
842.74
852.09
882.98
877.50
867.28
872.14
859.05
781.26
770.71
685.21
463.16
152.20
220.57
175.50
151.24
143.91
141.92
161.70
159.88
350.14
380.69
610.12
750.39
755.25
810.33
802.61
821.30
798.74
787.08
785.39
771.62
698.02
684.47
605.59
398.48
139.37
212.52
167.22
142.07
140.93
141.19
213.52
214.99
407.77
411.05
602.72
739.76
739.07
800.39
797.99
817.25
800.08
783.75
755.48
734.16
674.02
652.87
575.65
378.63
135.06
213.11
167.98
130.88
127.56
126.36
142.01
134.91
253.71
282.49
460.58
564.92
666.25
740.86
718.97
731.05
717.15
710.33
704.35
715.52
600.41
502.24
472.07
308.72
124.13
194.28
139.65
104.61
96.89
92.59
108.54
103.82
216.34
241.09
329.37
277.10
405.45
488.45
562.02
560.35
556.59
554.98
558.88
451.21
430.11
423.75
392.40
332.72
113.56
191.51
139.78
111.85
108.55
108.13
128.79
126.81
255.41
278.82
367.35
328.79
461.04
537.12
623.02
632.01
621.86
613.55
598.12
482.33
455.01
448.34
416.63
353.68
122.21
195.71
144.22
122.40
120.18
117.42
184.14
185.53
358.22
360.26
562.61
700.41
709.05
782.68
800.40
832.58
813.12
805.87
797.65
789.44
715.23
681.38
594.73
379.47
140.25
212.37
164.72
135.58
131.93
128.42
146.09
144.53
318.92
341.63
570.96
709.65
715.03
790.69
782.03
807.60
790.40
784.98
773.88
747.13
671.32
665.59
595.80
377.52
135.38
207.91
160.56
133.74
132.63
132.80
152.34
151.43
333.16
359.24
587.28
729.24
740.18
808.55
824.60
846.75
822.10
808.72
802.86
791.27
720.20
710.14
619.54
403.91
140.13
212.46
165.81
137.88
134.84
133.36
201.86
201.32
382.21
389.25
590.89
719.52
709.28
758.76
738.76
741.72
717.94
703.53
697.51
686.86
633.19
615.07
550.77
334.63
126.65
200.90
150.56
118.12
115.88
114.95
134.39
132.78
259.65
279.32
453.07
560.62
671.61
740.28
739.60
740.35
719.04
709.60
705.76
701.03
595.55
511.84
473.57
307.88
126.89
198.71
149.25
117.85
112.63
107.94
118.78
111.16
232.06
243.10
326.88
272.06
397.51
480.53
552.88
555.19
536.36
520.79
517.34
409.65
396.65
385.46
339.78
285.83
71.15
150.68
81.27
60.57
52.71
49.59
67.60
65.91
230.17
240.55
470.97
595.63
582.86
663.09
634.53
642.47
635.47
621.74
624.53
626.09
575.72
582.91
491.15
291.68
83.82
166.52
103.34
80.44
80.53
83.02
142.23
143.14
309.92
307.51
514.50
655.36
657.77
724.42
702.62
710.03
696.64
690.99
688.63
682.90
635.84
627.68
551.19
338.91
128.58
202.60
153.99
127.61
127.79
127.68
147.42
146.02
321.22
347.11
571.13
697.49
691.37
746.29
751.92
788.95
799.44
787.20
777.05
761.55
692.53
705.29
625.70
420.39
145.40
214.97
169.26
142.65
137.69
136.87
157.58
156.28
342.22
371.42
596.28
728.04
741.99
825.68
837.25
855.19
848.67
831.17
809.45
771.38
691.41
680.38
574.44
354.02
115.36
190.53
138.25
106.01
99.05
92.23
152.02
148.12
312.87
306.38
505.25
634.64
619.65
695.36
671.32
666.88
660.63
653.50
655.26
650.36
600.27
591.20
489.99
282.31
77.59
157.38
95.11
64.84
64.46
63.79
81.07
80.25
202.47
210.44
394.55
497.61
605.87
696.64
666.05
659.27
641.84
628.65
624.16
618.05
526.93
447.27
418.08
272.98
109.23
189.21
137.03
112.76
114.28
115.71
135.74
131.95
253.94
272.43
350.37
297.28
414.06
477.38
545.47
552.91
546.22
540.85
544.85
443.84
416.52
420.71
387.93
327.70
112.16
187.85
131.79
113.63
112.61
111.97
130.37
127.13
292.44
310.38
535.27
661.68
659.40
720.72
687.43
688.54
677.41
679.98
692.24
680.39
623.02
620.26
533.72
316.74
93.75
168.89
103.10
75.78
72.10
68.65
125.67
120.37
281.52
271.87
474.66
603.83
601.31
689.80
670.30
678.46
657.24
644.72
641.60
635.63
595.58
572.61
486.07
287.49
90.41
173.20
114.46
91.72
88.73
86.17
102.55
99.91
269.82
265.33
483.86
605.92
596.24
682.82
662.85
661.76
655.15
645.39
643.51
647.34
608.45
612.01
537.21
331.29
117.93
195.64
142.19
116.75
117.64
117.13
135.94
134.63
315.82
327.20
548.21
679.98
673.60
724.88
711.70
732.33
716.62
711.48
723.14
721.12
670.80
669.93
591.36
365.49
133.52
203.90
155.66
129.02
127.25
127.28
195.93
195.83
382.36
375.92
573.65
702.40
691.95
726.18
702.25
710.53
699.91
698.17
696.92
698.59
649.00
619.14
535.83
316.42
115.52
187.97
126.25
90.27
80.54
71.94
83.19
74.69
194.58
176.48
349.69
428.22
532.26
618.76
577.90
573.35
567.38
560.01
562.78
563.80
482.87
377.40
346.19
209.35
48.80
134.41
67.64
48.34
45.63
42.77
57.68
57.59
191.83
185.91
274.88
217.63
339.38
418.62
475.03
476.75
467.66
460.39
464.38
367.56
366.21
355.69
324.33
276.92
75.14
160.07
97.76
83.47
82.87
82.53
100.36
100.40
271.76
273.39
497.18
614.04
596.83
669.85
637.57
637.60
626.93
614.10
622.84
624.58
589.32
593.25
516.90
312.95
107.50
185.59
127.93
106.33
105.80
105.81
164.63
162.34
343.31
331.81
524.09
642.11
633.97
694.04
662.51
655.43
641.67
635.90
635.07
631.52
591.76
571.06
498.03
299.79
108.68
187.22
128.46
105.25
104.90
103.42
118.34
114.74
291.61
295.72
512.59
630.79
618.41
685.02
662.90
673.02
668.48
659.87
654.74
647.96
616.87
605.34
513.59
307.17
95.56
177.33
119.26
95.53
95.26
94.10
110.62
108.04
281.87
285.11
507.41
629.02
613.27
684.92
664.06
663.00
646.46
635.44
632.57
618.81
577.09
550.24
453.24
258.26
50.96
136.50
70.44
51.05
46.22
40.67
94.01
88.74
264.00
238.22
442.20
565.51
558.33
650.57
627.95
629.41
621.98
615.50
612.24
605.84
575.75
542.65
458.24
266.44
72.91
155.31
91.07
65.69
64.28
62.81
79.04
78.02
210.08
208.05
386.78
480.63
576.28
651.10
613.62
612.34
605.86
598.01
601.11
589.69
510.39
406.46
383.95
240.16
80.22
160.49
86.18
56.28
53.41
51.72
64.11
61.02
193.86
191.89
283.75
231.21
352.77
429.21
490.41
495.84
490.24
484.89
483.36
384.97
390.22
370.63
340.60
289.71
82.86
164.73
100.63
85.45
85.65
84.70
98.99
92.46
262.11
262.99
491.49
617.49
604.75
676.17
651.06
654.97
654.74
654.99
660.49
668.91
641.44
621.87
533.74
324.61
116.75
193.56
136.97
112.32
111.56
110.32
170.85
168.05
347.34
334.15
530.05
658.18
659.14
718.85
699.45
703.65
685.98
670.26
664.10
655.58
622.54
590.21
511.17
305.00
108.82
185.82
126.22
103.65
103.71
103.27
124.62
124.38
308.58
332.23
559.79
670.85
655.11
704.06
676.47
675.10
661.14
650.61
640.62
628.14
590.72
567.41
478.94
279.75
75.97
158.48
88.02
68.07
66.41
65.39
79.69
75.96
255.00
236.83
453.24
563.39
540.26
616.53
573.31
568.46
556.42
547.17
546.31
543.28
522.20
507.68
429.15
248.89
50.47
137.31
62.11
41.94
38.62
37.37
92.34
90.74
278.24
244.49
444.28
559.80
543.55
625.77
591.39
598.84
595.79
587.67
587.25
586.62
567.37
517.16
428.20
237.54
35.63
115.55
36.92
12.30
11.28
10.88
26.15
66.27
173.60
155.97
333.86
408.55
500.97
576.95
527.83
526.18
518.60
511.39
513.42
513.03
457.69
329.77
303.02
172.93
9.29
100.97
28.19
15.37
14.71
58.46
86.79
89.14
183.15
168.38
256.87
194.87
321.30
402.98
452.72
455.12
448.74
441.75
445.11
352.99
377.85
348.44
322.36
278.89
75.58
160.91
99.32
81.38
81.56
83.72
103.19
103.53
252.68
252.54
334.98
281.72
399.32
470.91
536.36
543.19
533.57
526.79
526.95
428.37
442.02
418.97
383.75
323.59
111.50
187.94
130.82
114.28
112.13
111.22
173.27
172.35
365.41
347.18
538.79
655.42
645.78
696.07
668.72
666.26
652.76
644.79
647.60
649.00
633.56
598.15
528.97
320.44
125.09
199.74
146.42
122.54
121.10
117.65
134.46
135.06
325.69
328.10
549.56
675.42
660.88
701.98
654.63
632.54
609.91
589.85
583.67
578.40
563.06
534.33
453.20
259.32
47.61
130.04
56.25
34.81
34.72
37.19
55.03
53.27
239.77
225.83
449.30
570.42
554.35
631.78
590.56
586.63
573.01
559.66
558.47
561.90
556.30
537.72
457.17
269.48
69.66
154.47
86.97
67.22
64.22
60.84
116.68
117.69
304.50
273.21
478.09
605.79
603.03
677.21
648.10
647.81
639.17
639.10
649.09
651.96
636.41
594.56
516.50
311.85
116.52
193.52
138.42
108.73
107.22
102.44
111.73
100.42
233.25
204.87
362.41
437.62
530.94
604.57
560.94
555.91
544.84
534.80
529.68
524.50
466.37
335.55
306.19
176.09
13.30
102.10
26.15
11.67
12.46
13.48
58.55
59.50
179.90
163.78
252.46
188.82
311.22
388.64
432.59
433.27
431.63
428.97
431.98
338.31
373.37
333.62
309.92
265.26
59.60
143.27
72.65
60.17
59.65
59.92
76.75
72.78
252.26
238.00
460.44
581.67
575.26
664.21
645.03
656.90
651.10
639.80
640.77
638.86
629.67
598.31
524.87
318.12
111.11
187.69
127.95
105.88
104.39
99.79
156.52
158.45
345.43
317.77
508.32
625.13
624.16
694.64
670.55
674.84
665.52
657.90
657.44
652.62
639.62
588.71
517.12
310.39
115.85
192.44
135.66
111.38
109.98
110.54
125.62
116.81
291.98
268.39
474.66
585.78
563.08
633.10
590.74
583.34
567.41
552.23
548.01
541.04
539.10
498.40
419.00
234.34
27.16
111.96
36.96
22.03
21.52
21.67
38.44
65.81
227.94
221.95
433.70
542.50
516.14
589.75
540.04
533.16
523.62
519.20
521.19
524.66
535.34
506.97
436.42
258.01
58.15
143.08
72.41
57.14
61.14
65.01
124.93
125.50
312.72
294.85
478.74
592.46
575.57
642.08
601.14
596.94
586.95
579.21
578.76
575.32
568.72
517.13
441.23
260.49
71.70
154.52
82.49
54.50
49.78
45.84
58.76
54.67
196.06
189.20
356.32
439.73
533.41
607.91
562.38
558.77
549.41
540.49
542.12
540.58
490.90
352.59
327.01
195.05
42.69
131.62
57.51
39.22
36.68
35.10
50.08
46.22
192.54
187.24
264.29
207.64
335.57
415.43
469.71
471.83
460.37
450.34
449.70
350.09
386.05
349.98
323.56
276.11
71.04
154.96
85.00
65.13
61.46
60.01
75.57
72.47
253.19
246.07
451.91
561.60
540.53
613.99
566.71
560.63
551.03
540.64
534.34
526.15
523.61
482.94
408.09
230.27
26.10
113.54
37.10
21.21
20.29
33.78
118.63
131.15
266.42
241.66
430.70
536.99
516.50
599.74
554.05
548.40
537.66
528.66
527.41
522.98
522.04
464.03
387.76
214.69
22.58
109.99
33.09
17.58
16.85
44.00
77.10
102.96
223.92
217.35
430.82
541.46
516.23
594.38
555.10
557.13
549.56
544.82
544.11
547.59
533.67
494.91
416.36
236.19
32.66
121.04
49.99
35.63
35.79
36.30
53.65
52.43
239.66
235.77
448.12
561.54
544.20
627.37
593.51
594.53
587.43
573.37
568.51
572.33
559.46
524.86
446.45
259.94
53.56
140.89
72.24
51.79
47.57
41.35
91.05
87.56
273.72
248.10
439.27
554.69
537.01
616.11
572.11
564.28
553.18
543.10
541.02
547.35
537.45
480.62
400.83
224.14
32.53
118.11
41.95
19.40
17.53
16.22
59.31
79.70
176.11
166.92
335.29
416.36
515.18
594.49
552.55
555.76
552.21
544.24
544.08
552.40
497.95
371.39
345.68
209.50
49.15
132.77
55.18
34.05
31.11
28.81
45.00
44.77
191.26
185.80
262.15
201.10
330.85
416.85
477.98
483.98
481.86
478.45
483.14
386.67
407.13
367.61
336.25
287.33
79.72
162.13
95.44
78.02
75.10
70.14
83.50
80.61
261.79
259.27
473.23
598.21
592.04
670.96
647.82
648.03
632.35
616.12
607.89
613.52
609.61
581.25
505.24
305.36
99.21
178.16
113.29
91.75
91.47
90.76
148.45
148.09
337.40
323.89
507.18
623.02
617.67
685.39
663.85
672.08
663.32
651.92
646.28
646.06
629.20
585.25
505.16
306.27
111.72
187.12
122.48
91.18
93.76
90.18
102.10
97.92
278.50
287.10
476.93
577.98
548.21
619.58
576.40
572.52
564.63
555.62
553.61
557.23
542.99
500.45
420.52
237.95
29.52
114.35
38.57
22.10
21.34
21.77
38.30
37.17
225.39
228.37
431.25
540.04
515.33
593.46
548.06
543.65
533.31
528.45
534.95
545.58
537.76
503.98
427.67
247.20
46.67
136.52
64.45
46.58
47.84
52.59
112.49
114.33
297.76
285.38
460.12
571.34
550.44
618.78
576.55
572.74
556.17
539.16
530.52
534.53
522.66
464.07
390.68
214.43
19.53
103.67
52.24
56.72
70.70
69.04
75.10
86.58
164.94
167.03
325.87
401.72
497.59
574.54
522.60
518.27
509.51
501.50
501.33
510.56
460.73
324.81
299.68
170.93
9.05
98.11
36.32
63.74
69.24
80.16
97.33
87.14
173.74
174.79
242.54
176.57
298.58
379.73
432.56
438.06
431.77
423.49
424.06
338.12
357.42
314.16
290.47
249.29
45.66
133.73
61.33
50.92
52.16
52.98
52.80
69.70
73.01
242.37
256.94
485.43
603.14
585.21
647.56
608.58
605.35
596.99
590.37
609.79
625.84
579.41
544.67
467.18
276.12
75.63
157.01
83.60
61.47
55.67
52.78
110.09
109.26
267.08
252.96
451.11
567.88
555.39
632.27
593.85
590.33
577.63
570.29
596.22
620.91
583.13
538.71
469.27
277.68
89.66
174.32
111.68
90.51
89.24
87.55
100.13
93.51
254.32
261.58
482.77
603.09
599.86
667.29
632.27
628.00
609.75
598.82
617.79
633.96
586.75
559.28
484.70
295.05
96.14
178.74
115.81
95.27
94.77
94.51
112.07
110.36
276.37
298.18
528.95
656.08
649.24
703.19
664.34
642.65
614.14
591.34
605.75
614.53
559.93
512.06
429.89
243.38
38.18
121.12
40.03
21.83
21.04
35.22
119.09
117.41
244.93
231.54
433.65
541.55
519.85
594.69
544.38
536.00
532.29
527.73
547.81
563.85
524.26
468.06
392.73
219.58
28.15
115.49
33.32
17.58
29.70
70.70
93.20
100.72
157.72
161.33
249.20
182.81
301.88
378.97
421.46
419.48
411.61
402.16
424.08
352.32
343.76
297.45
276.69
241.01
34.54
125.90
54.20
35.55
33.74
32.50
46.67
44.44
169.44
170.12
256.49
189.43
304.84
378.68
417.29
412.37
402.36
392.32
408.21
332.57
326.17
275.56
253.48
217.06
3.25
90.16
46.85
56.87
69.37
60.83
96.28
89.25
202.58
195.42
419.75
526.63
506.68
585.21
539.97
540.11
532.95
530.23
553.48
575.58
540.79
507.49
435.55
258.62
60.59
147.17
77.32
60.09
59.64
59.59
115.99
123.34
310.78
300.48
506.10
630.33
623.38
688.41
663.56
668.02
656.60
643.39
659.79
679.51
629.04
578.01
499.90
300.68
108.79
188.36
130.58
110.33
109.44
107.63
128.82
130.10
309.27
317.98
535.82
656.83
646.40
697.47
671.60
675.15
663.63
655.67
667.47
680.99
625.35
589.53
518.26
316.78
110.89
191.08
134.26
112.84
112.59
114.78
135.95
134.81
312.66
323.23
543.16
662.70
654.04
708.18
652.65
612.46
574.32
547.36
553.04
563.86
519.17
473.68
399.96
219.97
13.12
99.32
19.02
31.78
64.99
72.69
120.36
128.22
242.85
216.34
417.34
521.94
498.29
574.56
522.35
517.39
507.78
499.13
518.86
538.81
504.47
447.00
374.42
202.67
6.46
111.11
80.19
52.73
72.52
69.56
74.99
98.43
154.64
146.59
326.75
403.84
498.84
574.99
523.23
518.32
508.54
499.74
519.44
540.22
460.15
322.82
296.71
167.35
6.13
156.19
70.41
68.39
72.79
63.89
90.45
88.41
153.57
145.34
233.96
165.50
286.16
364.58
401.86
398.20
388.56
379.53
399.89
327.40
321.70
271.32
249.49
214.16
0.00
131.00
92.90
73.35
59.24
79.48
91.69
77.91
204.94
198.34
424.37
533.98
512.28
593.31
554.12
560.06
556.91
548.64
565.68
583.16
544.18
510.29
432.33
243.59
39.64
119.94
30.91
21.48
56.23
60.12
135.08
128.54
242.17
215.16
415.65
519.26
495.70
572.67
519.49
513.71
503.79
494.30
514.41
534.74
500.92
443.48
371.47
200.29
50.34
144.27
96.91
81.25
60.52
84.10
97.67
75.86
198.59
191.20
414.71
518.65
493.98
571.61
518.42
513.35
503.69
495.06
525.59
535.69
501.64
460.93
387.66
212.46
37.38
149.24
87.06
79.59
61.84
76.76
96.13
76.00
153.38
145.74
234.18
165.53
285.05
363.17
400.00
396.10
386.53
377.88
408.54
325.73
320.15
269.78
248.10
212.49
35.55
169.02
98.39
60.43
82.80
83.62
116.39
138.86
241.37
214.53
415.17
518.86
494.46
571.91
518.97
514.22
504.70
495.92
526.21
536.18
501.73
444.66
372.52
200.86
38.60
149.04
86.59
78.06
59.43
73.92
94.33
74.75
152.87
145.73
324.85
401.43
497.07
575.42
525.88
522.34
513.09
504.46
535.41
546.21
465.07
329.41
303.73
174.18
11.18
100.51
59.12
63.81
74.42
86.13
89.52
91.95
176.79
160.22
249.65
186.69
306.96
385.46
431.12
435.00
428.84
415.92
439.03
350.20
339.69
289.56
265.17
227.34
17.48
104.00
58.84
66.13
78.93
78.84
80.16
97.84
213.93
195.28
418.58
523.41
499.71
575.58
524.03
518.92
509.15
504.32
540.31
553.32
520.01
483.63
410.75
237.42
41.13
135.95
67.51
56.67
61.62
64.03
121.14
123.76
311.07
289.24
492.91
607.65
590.98
654.86
621.15
621.48
606.42
590.52
604.38
588.31
532.09
463.95
384.76
209.60
16.07
101.42
19.57
32.20
48.77
72.78
93.64
73.77
210.53
191.84
414.85
518.15
493.96
571.79
518.16
512.83
503.17
494.00
524.56
534.79
500.99
460.27
386.98
212.18
42.28
164.78
96.70
65.40
77.33
83.48
82.04
92.77
210.00
191.40
414.86
519.31
495.55
572.92
520.66
516.38
507.02
498.36
528.43
538.02
503.76
463.45
390.32
215.26
7.49
95.47
51.30
51.97
75.51
81.15
128.15
141.75
261.48
225.26
425.90
533.54
510.49
587.68
537.18
527.46
515.42
507.15
538.85
546.79
506.93
447.07
374.50
202.35
5.17
135.51
84.95
65.53
55.29
78.30
88.42
76.15
163.27
145.51
324.92
400.37
495.67
571.83
519.18
514.00
503.08
493.78
524.29
534.41
455.47
318.99
293.63
165.51
41.21
168.90
91.19
54.43
76.18
76.55
70.74
91.34
163.25
144.35
233.39
164.45
283.82
362.62
398.86
395.01
385.72
376.87
407.52
324.82
319.70
269.43
247.38
212.10
33.59
163.29
97.94
65.36
77.02
83.14
81.61
92.17
209.77
191.12
414.74
518.80
494.26
572.18
519.87
515.45
505.84
496.99
527.04
536.50
502.12
461.48
387.78
212.75
4.98
165.22
90.88
56.15
84.85
82.78
117.83
141.62
252.35
216.16
417.67
525.20
500.04
576.96
524.03
517.43
506.44
498.11
528.17
536.76
501.98
444.90
373.06
201.23
41.35
171.07
101.11
71.54
85.29
86.29
84.92
97.22
210.81
192.35
415.30
519.16
494.77
571.62
518.37
513.37
503.80
495.26
526.08
536.29
501.86
461.53
388.37
212.97
37.36
165.21
99.44
66.63
78.17
84.11
82.34
92.63
210.04
191.31
414.68
518.04
493.83
571.19
517.37
512.20
502.75
494.22
525.02
535.29
501.31
460.81
387.40
212.40
39.82
172.88
99.67
56.73
84.00
84.93
112.72
140.03
251.29
213.96
414.86
518.47
493.92
571.26
518.12
513.76
504.47
495.95
526.60
536.75
502.60
445.74
373.30
201.36
23.86
167.84
69.47
74.59
78.36
59.71
90.45
93.16
163.83
145.20
324.48
400.06
495.29
572.44
519.66
514.94
505.46
496.97
527.90
538.24
458.75
323.24
297.69
168.82
6.49
165.60
96.23
65.80
84.17
92.55
89.54
102.13
171.53
151.63
240.30
176.06
299.26
380.43
425.97
427.85
422.82
417.89
453.29
374.17
364.28
323.73
302.27
264.93
67.56
153.04
91.22
75.98
74.89
74.16
92.77
95.00
283.55
288.20
495.49
609.85
597.54
655.75
617.52
622.31
602.45
572.82
589.72
587.63
537.26
491.60
407.35
223.31
14.88
100.52
48.57
51.79
79.89
68.70
120.36
133.85
253.35
226.64
417.51
521.19
497.45
573.96
521.80
516.62
507.07
498.42
528.80
538.65
503.98
446.35
373.73
201.91
4.85
139.62
89.51
77.01
58.13
82.84
100.57
76.44
209.26
201.73
414.86
518.68
494.45
571.64
518.22
512.95
503.00
494.18
524.96
534.96
501.01
460.25
387.06
212.22
36.81
148.66
86.70
82.88
66.16
77.34
99.40
81.43
209.06
201.51
415.08
519.93
496.55
577.32
526.86
522.96
515.43
509.16
543.00
554.80
519.98
485.39
411.45
234.53
36.34
151.44
118.71
73.88
98.19
97.66
126.97
148.90
253.66
225.92
415.61
518.99
495.89
572.78
520.10
515.47
506.10
497.49
528.09
537.92
503.30
446.18
373.78
201.79
15.16
165.45
67.67
70.75
78.37
59.84
90.95
93.71
164.27
156.22
325.25
402.11
497.82
575.83
524.83
520.93
512.09
505.40
540.57
552.86
471.11
339.11
315.21
185.63
23.58
112.74
56.74
90.35
72.36
93.14
103.81
94.74
186.28
183.55
263.08
208.76
343.24
415.40
458.47
453.38
441.45
425.75
446.75
357.36
343.83
292.68
266.24
225.77
12.22
144.27
93.63
79.39
58.84
83.61
100.06
76.57
209.43
201.95
415.22
519.06
495.38
572.07
518.86
514.03
504.59
495.61
526.17
536.35
501.99
461.32
388.32
213.14
14.47
166.56
71.97
73.31
83.52
65.19
134.27
141.45
251.91
225.25
415.39
519.02
494.76
571.93
518.50
513.22
503.63
495.13
525.99
536.22
501.93
444.75
372.33
200.68
20.84
167.61
72.64
75.19
82.56
66.83
94.72
99.22
210.58
202.39
415.28
519.81
496.02
572.94
522.20
514.91
504.97
496.14
526.60
536.34
501.67
460.66
387.47
212.42
38.15
151.65
92.53
81.30
66.01
78.70
97.52
81.24
208.90
201.37
414.71
518.73
494.72
572.49
522.80
514.56
505.09
496.41
526.89
536.82
502.93
462.11
388.45
213.30
14.59
167.19
73.46
71.21
79.08
62.97
136.52
138.22
251.72
225.23
416.61
521.23
497.65
574.44
525.47
518.12
509.63
502.28
532.75
543.03
507.66
450.36
378.07
206.05
11.70
101.47
20.30
25.75
33.12
58.91
86.19
79.83
172.58
165.86
335.25
413.39
508.70
584.66
541.71
538.18
532.23
526.50
557.49
571.11
479.02
341.08
315.95
189.43
31.78
123.99
56.63
41.52
45.34
48.34
67.01
70.39
219.27
227.30
306.00
251.70
366.45
430.73
481.40
486.74
478.92
469.08
499.67
414.66
399.54
349.64
310.19
257.53
46.41
130.38
50.42
32.18
58.51
89.63
117.03
97.11
180.09
172.52
248.17
180.84
299.30
373.92
412.79
405.75
394.13
384.39
416.53
329.31
322.23
271.29
249.67
213.55
12.92
162.15
77.47
68.79
83.60
69.75
130.53
140.24
251.74
225.00
415.45
520.12
496.32
572.97
523.23
516.19
507.87
500.94
531.31
539.84
504.88
447.85
375.56
203.39
6.89
118.49
72.97
73.65
74.26
65.40
91.88
91.57
213.81
205.37
418.50
523.80
500.43
576.63
529.62
526.46
519.83
509.26
534.86
543.37
507.30
466.25
392.04
215.31
7.68
123.50
74.45
71.88
72.20
64.06
94.16
94.72
210.81
202.80
416.76
523.11
499.24
575.74
526.72
519.47
511.73
503.36
522.90
543.23
508.23
465.98
393.65
220.21
17.07
120.52
96.41
62.57
83.85
82.10
117.06
148.10
256.22
231.21
422.83
531.82
510.69
587.99
538.49
537.54
531.16
519.58
540.18
556.92
517.83
460.90
388.77
216.25
23.36
112.39
31.87
55.05
73.19
94.06
105.36
94.77
194.75
188.91
357.38
442.63
540.64
608.31
549.89
533.05
515.14
503.81
524.67
542.77
460.26
323.07
298.10
168.60
0.91
127.89
64.92
73.37
67.56
54.38
94.20
90.24
165.27
157.50
235.74
167.63
288.28
366.20
407.35
401.62
392.30
383.65
403.60
330.41
324.40
274.50
252.35
215.98
2.20
120.91
